SPECTRUM DATA FILE
SpectrumCount:	7
PixelCount:	2500
UserName:	Atto
SampleName:	
LightSource:	
Comments:	
DeviceName:	Qmini
DeviceManufacturer:	RGB Photonics
DeviceSerialNo:	20020

Name:	press0_2	press0_4	press0_6	press0_8	press1_0	press1_2	press1_4
Date:	2022-02-16T16:39:57.0793301+00:00	2022-02-16T16:41:53.4875983+00:00	2022-02-16T16:42:37.8891153+00:00	2022-02-16T16:43:58.5908464+00:00	2022-02-16T16:44:44.0927301+00:00	2022-02-16T16:47:09.5960090+00:00	2022-02-16T16:48:10.2987359+00:00
ExposureTime:	0.1	0.1	0.1	0.1	0.1	0.1	0.1
TemporalAvg:	10	10	10	10	10	10	10
IntensityUnit:	ADCvalue	ADCvalue	ADCvalue	ADCvalue	ADCvalue	ADCvalue	ADCvalue
CCDLoadLevel:	0.2710881	0.222379	0.1448925	0.08582424	0.06430244	0.06372198	0.05398405
Temperature:	24.6405	24.53796	24.53796	24.6405	24.53796	24.6405	24.53796
DiagramColor:	200	16711680	49152	16711935	42495	12632064	3368611
ProcessingSteps:	783	783	783	783	783	783	783

Wavelength [nm]	Intensity1	Intensity2	Intensity3	Intensity4	Intensity5	Intensity6	Intensity7
181.1781	0.4784232	1.169722	2.990726	3.113513	-18.49109	-17.07711	-14.60216
181.5213	-11.63027	6.294482	1.329452	-5.952988	-10.53585	-19.71974	-15.72443
181.8645	-9.369838	14.39221	4.799933	-8.137982	-3.07553	-17.04514	2.589874
182.2076	-19.08309	16.36807	0.8010952	-24.26783	1.962724	-27.14523	4.851031
182.5508	-0.6065516	11.55689	-1.828912	-16.64106	4.915912	-14.36163	1.547154
182.8939	-2.156841	2.4767	-26.37721	-16.32162	-0.01916421	-17.89282	0.06505119
183.2371	9.055174	-4.258173	-29.72626	-8.061479	-6.408547	-3.587597	10.34296
183.5802	-0.1337622	-10.37234	-24.09714	-18.04628	-13.05152	-13.07466	2.824375
183.9234	-22.59319	-10.91153	-22.26282	-37.45146	-23.29762	-32.57151	-23.43515
184.2665	95.75067	119.1361	101.2985	89.46137	96.07949	79.05695	101.0918
184.6096	136.7787	156.6943	142.9686	129.4068	135.1271	132.2225	141.2944
184.9527	96.21691	94.37572	88.69511	83.87626	86.4181	94.44675	92.65875
185.2958	-16.26692	-12.46555	-28.92164	-24.1272	-15.36212	-18.72698	-21.18503
185.6389	-1.388123	14.88779	-13.44411	-9.377823	4.076108	-5.663501	10.07032
185.982	-3.957916	7.439805	-0.111661	-1.810964	1.371217	-3.03366	5.015797
186.3251	-5.065604	-12.4998	2.157351	-5.49769	-0.6708716	-5.884562	-7.085346
186.6682	-1.253211	0.8667597	10.40317	0.9897259	4.700274	-4.964104	0.3695097
187.0112	-4.24526	15.26734	-1.706963	-20.56648	-5.813065	-7.916993	7.043006
187.3543	-5.766787	10.64343	-3.160212	-20.75956	-10.06257	-0.4996261	2.659524
187.6973	-0.786992	-6.241495	-7.537301	-25.93232	-3.895723	-3.843278	-3.98361
188.0404	-5.186566	-16.78954	-10.2097	-2.649032	0.4150559	-4.670882	-3.785544
188.3834	7.361997	-7.676878	-11.48971	6.78475	-13.64693	-18.37932	-0.5933844
188.7265	3.586026	3.599113	-4.06645	5.407615	-18.97679	-20.24218	5.515486
189.0695	5.689473	-0.3661006	9.192255	-18.26812	-11.62841	-20.6235	0.7543782
189.4125	-1.687665	-10.86445	14.34367	-18.17283	-0.5407794	-1.376016	-6.941357
189.7555	0.9230978	-1.078483	4.780395	-20.74531	10.43237	-13.42447	-8.24312
190.0985	-3.088782	6.973353	-0.9200468	-16.65788	8.617778	-12.74749	-4.465783
190.4415	-4.574995	1.96253	-9.969053	-34.91595	3.225331	-18.87154	-1.019252
190.7845	-1.764281	-4.745756	-10.09749	-23.21104	-0.8471848	-5.069934	4.083162
191.1275	-12.21343	7.41402	-14.47291	-36.35875	4.076974	-22.98152	-3.345229
191.4705	-8.32362	5.190183	2.41718	-24.89422	3.041665	-8.974024	-5.847456
191.8134	-12.81418	9.580274	-6.789476	-33.92266	4.336032	-21.7249	-5.624713
192.1564	-7.707412	7.190048	-10.67215	-22.33142	5.87083	-9.858361	0.8557181
192.4993	-16.34615	7.967986	-13.67713	-23.67085	7.750825	-19.13887	-10.22823
192.8423	-15.11564	0.8405682	2.08727	-15.16579	4.318653	2.638486	-10.94673
193.1852	-5.848187	-5.269358	-2.504197	-14.37946	-4.419503	-3.265576	-8.864465
193.5282	-0.01577578	10.71468	-11.05724	-12.70239	-5.644153	6.295826	0.9081126
193.8711	0.5425849	17.91121	-17.68933	-11.87533	-1.437936	-3.036283	2.3813
194.214	-7.624557	11.32486	-11.90876	-14.69383	5.211668	-9.691826	-0.8490111
194.5569	-11.14459	-11.49806	-0.2282562	-27.67571	-0.5953876	-19.52762	-7.557831
194.8998	-14.94841	-9.905632	12.33383	-23.24829	4.429586	-16.31103	-5.823606
195.2427	-11.89895	8.614132	1.648126	-36.57724	5.483606	-29.29676	-1.655402
195.5856	-0.6012214	11.83737	-4.88959	-20.29475	9.418484	-26.32819	-1.278954
195.9285	2.073357	1.94679	-2.902664	-17.19001	-2.780776	-10.27304	-4.816863
196.2713	-1.732308	-3.714097	6.428372	-4.363435	-0.8861982	-5.117261	-3.072036
196.6142	-8.305682	-2.202357	-9.140036	-11.74781	-3.825691	-18.97582	4.313377
196.9571	-6.347809	-0.3362048	-11.10341	-3.349469	2.5017	-20.75333	10.67572
197.2999	-9.849369	-5.203221	1.109118	-5.511557	2.453547	-0.9523557	11.51045
197.6428	-5.023356	7.264134	10.23622	-1.89877	11.21782	0.2658628	12.435
197.9856	2.117614	4.106704	-3.212969	8.954275	4.222897	-4.395441	5.897089
198.3284	7.165017	4.915684	-4.478066	5.779462	5.843794	-14.83909	-2.031838
198.6712	0.2176736	-6.897833	-6.350929	-3.537716	1.641275	-3.986719	-12.85058
199.0141	5.736346	-0.5759394	-2.045531	4.121418	3.68248	3.734788	-1.432588
199.3569	1.539771	4.970224	-15.43978	8.103433	-1.606271	3.686718	-2.282985
199.6997	-1.431716	15.10586	-3.719171	2.347016	-0.6341242	-0.2530709	-10.44976
200.0424	-14.56452	18.19304	-4.762559	-14.48501	-3.226832	-7.363143	-16.28925
200.3852	-9.573003	21.86387	5.218505	-15.19315	1.016921	-7.203415	-7.423053
200.728	-5.683306	7.353892	-10.11653	-10.34052	5.490571	-10.22022	-10.68514
201.0708	-1.946396	6.968761	-8.357381	-6.500425	6.841654	-12.29807	-3.374988
201.4135	-6.491371	0.3319129	-10.29147	-3.625036	5.48608	-7.053197	-4.488708
201.7563	-4.069113	-1.431403	-7.863742	-22.00166	3.8976	-7.94407	-9.224288
202.0991	-2.757513	-10.28554	-12.93859	-26.28164	-5.648428	-16.313	-24.73732
202.4418	1.768828	5.967937	-8.068361	-9.172283	-6.331955	-21.02266	-13.05277
202.7845	8.309612	1.107134	-4.684135	7.96563	-2.704124	-7.667584	-9.332562
203.1273	9.131387	-1.289065	-5.018839	-4.857646	3.248	-2.546337	5.815217
203.47	-0.6679687	-9.916039	-1.071091	-14.7938	-0.01210414	3.457569	-3.075559
203.8127	4.285621	-4.90993	6.914345	-9.03861	-5.439791	7.87035	-9.279436
204.1554	7.133815	-9.206237	3.483499	-19.58398	-7.400583	4.563831	-13.09003
204.4981	-1.794225	3.039237	-4.794866	-25.44919	1.857242	-7.834461	11.86811
204.8408	-11.14567	6.0097	-12.76752	-23.38803	2.256303	-15.80693	14.16674
205.1835	-1.513254	6.58888	-7.587873	-5.731025	-0.6810197	-9.52113	15.75868
205.5261	6.9459	0.6417273	-13.23992	-3.053645	3.148839	-3.865254	-0.6543314
205.8688	6.454708	1.621426	-4.09625	-7.746793	11.81108	-3.056644	-6.483111
206.2115	-3.158892	1.555657	-3.06075	-24.77152	11.51357	-13.66758	-10.49566
206.5541	0.0335423	6.095146	0.05793264	-22.46117	7.329807	-13.54252	3.430121
206.8967	0.7598687	6.117264	-10.44335	-7.55767	6.117834	-15.75802	11.10901
207.2394	13.39705	-1.91638	-9.703796	0.691934	-2.072166	-6.120916	12.03512
207.582	3.265138	-8.296555	-6.578487	-8.861259	1.03823	-0.8340829	8.114548
207.9246	2.11652	-0.08466975	-2.490372	-20.19158	8.521564	-3.359752	-2.221352
208.2673	-8.359701	11.62344	-7.009402	-12.75601	14.17276	-12.53144	-15.6797
208.6099	-2.677536	9.923985	-10.21591	-7.662291	4.277962	-10.69001	-14.29115
208.9525	-6.086517	0.224546	-10.75712	-12.6224	-1.161374	-19.41791	-5.534883
209.2951	4.072876	0.4219122	-8.593695	-10.69902	1.13275	-18.24399	0.3159134
209.6376	0.3387849	3.426276	-10.83401	-11.39396	8.17829	-17.78998	-10.05635
209.9802	1.477588	8.754432	-5.721662	1.43967	-0.650364	-10.3964	-10.17445
210.3228	-3.466755	5.697773	-3.060864	-5.341136	0.1017634	-13.5026	1.766016
210.6653	2.338308	-4.487821	-3.083104	-0.4023629	3.492126	-3.613941	8.391703
211.0079	-2.693793	-16.13898	-1.474387	-8.576449	6.396703	-5.870704	0.4565044
211.3504	3.107196	-0.4998886	-7.024312	-16.96024	-3.648929	-23.79445	-7.806548
211.693	-3.760523	12.15641	-11.86337	-24.9828	-4.792493	-24.65812	-2.370481
212.0355	0.1205478	2.75967	-13.96609	-10.96954	-2.876502	-9.357798	-0.08562446
212.3781	-1.326675	-11.948	-9.293488	-2.859256	0.3126362	-1.117838	-9.065204
212.7206	2.361681	-6.721516	-10.34188	-5.885635	-1.420699	-10.29093	-9.951771
213.0631	3.17177	-3.70908	-12.99583	-5.492791	-5.148724	-8.456208	-12.02743
213.4056	6.618047	2.655969	-7.122619	-0.07409789	-13.20986	-1.564881	-14.88108
213.7481	11.0636	-2.319154	0.5680101	-8.647949	-9.374149	-5.919392	-21.23584
214.0906	0.4923052	2.121334	3.802568	-14.01293	-1.997133	-12.60159	-11.20987
214.433	-10.39133	1.538391	-15.71144	-23.27854	7.55498	-21.54641	3.715476
214.7755	-16.81654	15.3508	-25.48441	-20.24577	4.911067	-16.81853	7.114512
215.118	-5.979754	6.146287	-12.70652	-16.76103	2.936203	-11.23158	-0.7261262
215.4604	2.966955	4.861636	7.108267	-7.133684	-4.071476	1.231657	-3.247558
215.8029	1.738398	-0.198048	1.140692	-13.95428	-4.49445	-4.859085	-8.765781
216.1453	0.4130741	4.865878	-4.008808	-7.263989	-0.6240393	-5.6358	-10.94226
216.4878	-1.359652	3.413016	-0.568488	-3.250826	3.517282	-10.23384	-11.38275
216.8302	2.888338	15.51614	0.8904928	5.281119	6.725559	-5.54301	7.050833
217.1726	1.75134	23.82007	-8.638201	-4.276692	-5.97781	-4.197078	0.9970834
217.515	5.687535	15.29198	-0.9084839	-10.64908	0.507619	-4.955193	-4.490031
217.8574	-1.826783	1.423346	0.0464834	-8.946897	0.6908275	-10.60221	-15.95051
218.1998	-1.436061	1.206097	1.67204	5.264115	9.891613	-8.574615	-11.67227
218.5422	3.617833	5.533129	-2.364393	1.100965	-3.131554	-3.183488	-20.73206
218.8846	14.45439	9.317373	-0.9796402	-14.07378	-3.966667	3.401929	-10.24143
219.227	16.19585	4.245658	-14.01527	-16.77736	-1.223155	10.1424	5.082086
219.5694	12.19785	1.081321	-6.571672	-7.36005	-3.332781	6.781559	10.97558
219.9117	6.401367	-4.832144	7.889358	1.158643	-0.484432	-9.43166	-4.264049
220.2541	1.276075	-2.239076	9.1422	4.126498	6.632385	-24.40129	-17.96444
220.5964	-2.341252	-0.5019801	-11.56567	-0.1975048	8.706131	-25.10139	-27.06331
220.9387	-9.312338	13.46743	-19.26802	-7.261477	-5.25165	-22.99096	-19.58155
221.2811	-18.17971	14.67404	-3.045617	-4.211124	-7.605412	-11.64779	-5.886949
221.6234	-16.82113	17.72623	3.671928	-3.500708	1.571303	-11.93709	0.6230839
221.9657	-6.943165	6.481221	-5.041222	-3.05742	-2.943185	-10.98554	-4.577466
222.308	4.600357	4.670544	-19.21976	-15.54335	0.33816	-13.38567	0.8992375
222.6503	-5.322389	2.863182	-10.02109	-19.68102	-7.566607	-11.4971	7.205839
222.9926	-9.625713	14.30257	2.634171	-13.37933	-2.074427	-9.74577	-2.360234
223.3349	-15.35758	23.71832	-0.8696223	-8.616037	-10.12493	-19.725	-8.208019
223.6772	-10.80034	26.31424	-2.0059	-8.42742	-6.062131	-18.64102	-7.602433
224.0194	-6.232435	16.30167	-9.801909	-13.80183	-9.929998	-14.09618	0.3027031
224.3617	8.654675	6.285461	-11.89025	-6.567502	-1.415398	2.898349	-11.75875
224.7039	11.92391	-1.331808	-13.18765	-3.372411	-2.718651	3.504575	-10.97426
225.0462	5.114516	10.99403	-1.67362	1.150553	-1.745569	1.591373	-9.298164
225.3884	-2.593595	7.173227	-13.16237	-16.65507	-2.139924	-8.30246	3.347681
225.7307	-5.141639	3.295918	-24.97804	-13.45171	-2.695817	-6.77226	8.095564
226.0729	-4.011073	-6.325384	-22.06358	-15.666	-16.49354	-5.479465	8.843681
226.4151	0.2784503	2.093508	-14.17453	2.454396	-6.952187	2.139853	-1.163532
226.7573	-3.646698	7.804193	-6.754769	-1.803765	-11.09545	-12.84934	-10.28747
227.0995	1.723124	6.146089	-0.3717613	9.84622	-2.361105	-4.249857	0.4397965
227.4417	2.479111	-3.125727	8.783629	-1.50279	-15.09889	-7.941734	2.420576
227.7839	7.146177	-7.904118	1.50525	-3.568902	-0.14364	-9.186337	3.535462
228.1261	-0.2608835	4.673282	-5.126988	-22.13808	-6.373661	-30.08886	-12.68057
228.4682	-11.35619	17.3583	-1.737007	-23.75175	2.495397	-29.77682	-15.92598
228.8104	-23.35308	22.08204	0.8450069	-20.82203	-5.500744	-24.8405	-20.07558
229.1525	-9.898006	12.48859	-3.338986	-12.63319	5.846353	-12.94856	-11.26664
229.4947	1.91749	6.065836	-3.544083	-12.96072	2.303063	-11.62082	-17.08715
229.8368	3.058617	-0.358525	3.64518	-2.748073	1.468694	-4.154609	-9.236955
230.179	-4.874161	5.854214	-4.306325	-3.909302	-0.02888052	-6.471947	-4.210387
230.5211	-6.999664	2.390755	-15.76882	-3.062441	1.008728	-3.870654	1.024954
230.8632	-8.491212	1.29037	-15.15508	-2.34413	0.2897918	-11.24158	-7.558187
231.2053	2.486229	-4.129628	-15.82089	2.763609	-0.268347	-13.06881	1.117581
231.5474	17.79176	3.735774	5.759583	8.669448	16.25572	-15.25149	8.776314
231.8895	9.432971	14.11868	12.99944	-6.06181	8.997236	-21.19847	1.233884
232.2316	1.002093	12.64017	6.479315	-7.810221	3.130083	-21.71811	-2.833901
232.5737	7.943886	7.17561	-14.48622	-9.784221	2.585037	-24.48726	7.038584
232.9157	6.639375	5.202565	-10.12934	-6.462591	4.726364	-24.58166	8.946203
233.2578	-0.3564416	5.170491	-1.6767	-8.532355	-5.930972	-20.01716	-4.813891
233.5999	-0.5059216	2.298649	3.165125	1.553196	-11.57513	-4.406901	-16.49493
233.9419	12.34868	0.5631132	-2.156838	5.030087	-5.766196	10.16581	-6.642769
234.2839	4.05061	3.78796	-8.044121	-6.352937	5.140366	-0.2375574	-0.966993
234.626	-5.403022	0.676233	2.748938	-1.52778	5.16415	2.723154	0.876253
234.968	-8.374261	-1.318781	0.1764727	-2.622821	-1.880757	-1.882956	-4.795575
235.31	4.829119	6.128823	-8.414876	-1.986564	-13.79346	1.161912	0.03564857
235.652	-0.2456741	12.83942	-15.25729	-25.43606	-13.31317	-21.54326	-0.3992926
235.994	-3.595021	7.536322	-10.64849	-16.74599	-3.073915	-16.08549	-0.4482642
236.336	-11.87446	-6.398262	-15.67672	-7.635952	0.6596051	-15.22026	-10.18926
236.678	5.610483	6.405464	-11.72511	12.39705	3.384522	-3.932288	-5.084558
237.02	0.6998799	13.7024	-14.8595	-15.74075	5.118782	-6.745192	-3.555527
237.3619	-1.804093	11.47034	-11.4392	-10.48637	7.206419	3.853375	-1.128863
237.7039	-14.74129	2.342849	-15.71739	-17.06944	-3.514592	0.2581224	1.009129
238.0459	-3.58047	5.424092	-7.672611	-12.9917	-7.774589	-0.01965048	-0.3831732
238.3878	5.637103	12.25197	-9.244737	-26.29108	-0.1505753	-3.406111	-1.040383
238.7297	3.287423	8.253177	-0.2584379	-9.851228	-0.9650673	0.2997231	0.433672
239.0717	-9.515795	-6.044697	-1.914274	-2.254518	-15.19952	-11.19856	5.299128
239.4136	1.225982	-0.1238143	-4.365672	-2.557095	-8.493904	-8.407184	-0.7163802
239.7555	16.50144	6.598977	-12.80217	-5.593991	10.08455	-5.580184	-4.646262
240.0974	27.53654	0.8217841	-4.414743	-2.194553	15.14622	-6.69137	2.50776
240.4393	13.72645	-9.909771	10.74459	-0.7689413	-12.99174	-14.01003	-1.323449
240.7812	3.040105	2.045293	13.92714	-5.796196	-26.17825	-19.22648	-1.454312
241.1231	-1.475348	6.597385	-4.562589	-8.837708	-18.58944	-18.63128	-7.571084
241.465	12.62971	9.904987	-7.903429	-12.08802	-4.234603	-22.24901	-2.821283
241.8068	1.541432	21.39962	-8.288988	-34.1045	-0.9022866	-31.23338	-12.25976
242.1487	-8.051247	27.30545	-0.9864538	-34.65589	5.944598	-36.13202	-13.85908
242.4905	-11.07733	9.444363	-13.02224	-25.63544	17.14316	-26.90614	-17.38357
242.8324	3.538949	7.675437	-3.663373	-11.84857	17.22621	-3.725392	-2.800384
243.1742	1.806229	13.4226	-3.17808	-12.94431	-0.7790259	-9.025251	2.071046
243.5161	-1.433289	16.1164	0.1617419	-5.034599	-16.03869	-20.85288	14.22185
243.8579	-21.08274	17.24287	-14.28586	-31.40311	-8.836561	-38.68889	7.841969
244.1997	-12.96602	25.93	-16.33787	-37.62448	0.9532266	-29.47622	-4.038524
244.5415	-4.139976	15.55439	-20.54808	-16.39513	-2.314637	-20.71147	-5.819237
244.8833	14.56666	-4.615042	-9.635906	15.07195	-3.534451	-14.80665	2.901515
245.2251	10.16606	-3.453832	-2.095867	-3.312092	3.025847	-18.27308	4.002592
245.5669	3.955566	6.621144	9.962888	-11.37159	6.874352	-19.81562	3.024037
245.9086	-6.000416	4.042998	9.575246	-9.290985	-7.59357	-16.27089	2.069357
246.2504	-4.895174	-3.768207	10.41093	-3.164451	-9.146505	-8.029681	-8.985154
246.5922	-8.292413	-0.8273246	-9.455143	-7.494384	-4.61379	-2.162319	-8.808937
246.9339	-17.04044	12.96896	-16.53883	-5.207451	5.046626	1.023894	-3.043839
247.2757	-14.15027	11.59205	-16.1757	-6.209082	4.992239	-7.357432	-6.270767
247.6174	-5.005281	-0.6945495	3.096752	-23.13143	7.421429	-5.034094	-6.945736
247.9591	1.799014	-5.44163	-4.743321	-18.20829	6.86386	-12.56882	-4.249497
248.3008	-2.750287	-4.028407	-8.026102	-15.15746	2.755386	-6.906104	1.768549
248.6425	-11.89853	-0.7331558	-15.73685	-6.59778	4.415802	4.159178	-10.2431
248.9843	-5.252835	5.416352	-9.173591	-8.090921	2.379394	8.681498	-11.29629
249.3259	0.155691	12.82131	-5.19874	0.05481224	-1.181711	-6.68878	-17.25799
249.6676	4.983735	9.299584	5.477139	9.582814	-5.430148	-12.56551	-3.574728
250.0093	3.502512	0.4712204	1.240733	8.360461	-2.448194	-14.48798	-6.664443
250.351	4.324196	0.163515	-10.20279	-3.685323	7.125288	-11.32461	4.667465
250.6926	-1.952585	3.854598	-14.55314	-14.82345	6.693471	-14.31721	9.689828
251.0343	0.5081592	0.706064	-0.4235933	-9.139837	8.54524	-2.242728	4.219426
251.3759	-0.01769838	2.17913	3.250469	-6.71873	8.969991	-0.04614832	-21.24513
251.7176	3.032017	9.107699	9.428758	-16.1268	11.869	9.197508	-20.89129
252.0592	-0.9640381	6.721362	6.55548	-20.49809	5.058581	2.099653	-11.57241
252.4008	-5.338574	1.353658	3.597092	-19.48798	-10.489	-8.935659	0.5676473
252.7425	-8.346536	3.014645	-10.80259	-19.39675	-17.17675	-17.91069	3.349499
253.0841	-1.315925	8.543104	-9.800377	-18.8773	-17.63029	-9.374576	3.111504
253.4257	-8.51122	16.77952	-5.072713	-32.20176	-1.947271	-18.63756	-1.86493
253.7673	-7.620573	21.99383	4.434141	-18.31303	-0.08682727	-23.43414	0.3073801
254.1088	-5.12095	20.31146	-7.835872	-13.08419	-6.745466	-31.39763	4.104953
254.4504	8.524552	12.66697	-13.03409	7.12461	-10.23137	-13.30259	7.697761
254.792	2.174874	3.19274	-6.687293	-0.9978189	-1.493147	-12.4457	4.929481
255.1335	-1.680846	0.4424816	6.162957	0.01824222	12.14793	-9.411715	-2.735321
255.4751	-10.417	11.18416	7.044572	-14.02977	6.520205	-10.11817	-14.47985
255.8167	-3.369745	21.17901	2.512421	-4.612629	-3.504339	-3.954212	-4.813157
256.1582	6.387789	7.708198	3.712308	-0.08666053	-6.524149	-2.287272	3.464061
256.4997	9.72606	-3.559131	3.109348	6.568217	2.307637	1.574426	8.382561
256.8412	15.65386	-2.499196	5.532535	-6.603289	7.043104	0.9695786	1.928824
257.1827	10.78258	8.399213	-1.024925	-5.075469	-6.123449	1.949733	1.335287
257.5243	1.563633	6.881096	-13.96903	-6.244955	-12.66581	-6.611028	-3.189993
257.8658	-4.244409	3.379149	-17.07442	1.168368	-12.53334	-9.959474	-9.093142
258.2072	-4.6977	5.90692	-10.78193	-17.55406	-1.168476	-25.09476	-6.479783
258.5487	13.64148	2.802468	-3.042326	-9.163757	8.392921	-14.19024	2.11386
258.8902	10.40208	1.440639	1.004757	-7.467844	9.552023	-9.741254	6.076102
259.2317	3.852004	1.453975	-2.77544	-5.495729	10.09392	-2.800061	3.715878
259.5731	-3.369685	11.8716	-0.7059822	-25.60505	2.715445	-9.385553	-9.283814
259.9146	5.108521	8.561739	-2.137495	-7.253995	9.070177	1.135729	-8.27559
260.256	-3.463618	8.134149	2.076293	-4.303741	-1.293499	2.286071	-7.172678
260.5974	-16.67224	13.93759	4.746068	3.888925	-3.075867	-3.402396	-7.399758
260.9388	-4.972489	15.8925	3.988554	-12.77748	-4.278262	-17.03552	-12.25781
261.2803	6.352886	10.10377	1.3324	3.666428	0.8723993	-8.511649	-3.551808
261.6217	9.927532	-2.225054	-12.6005	-6.149892	-5.008225	-9.936287	1.613331
261.9631	10.09954	-0.5138658	-10.7798	-9.096645	8.264085	-13.15983	-5.901661
262.3045	1.266474	-0.1432859	-10.14336	-17.51289	11.86736	-15.28187	-13.08636
262.6458	4.847299	14.74585	3.199375	2.591876	10.85383	-2.607424	-4.946065
262.9872	-3.315138	15.78084	-13.66346	2.060992	-12.89281	-12.69272	2.933401
263.3286	8.826328	0.1847424	-13.32485	2.477804	-5.559201	-14.21731	7.446279
263.67	10.19965	-9.121541	-10.99428	-1.544969	-9.259715	-10.94182	-6.771718
264.0113	6.318441	4.10016	2.6108	-8.030643	1.499787	-7.316425	-9.740898
264.3527	-4.897418	10.55666	-12.06291	-16.30973	-1.528489	-9.010498	-14.4186
264.694	-5.833746	8.106678	-17.83733	-5.717165	14.77753	-16.15195	2.026671
265.0353	-5.403137	7.979505	-19.35046	-3.058827	10.92493	-16.25523	11.5866
265.3766	-20.40001	10.5137	-16.75136	-13.70802	10.71194	-17.95918	14.23069
265.718	-11.62453	7.192359	-10.14439	-16.82644	3.254199	-13.11671	0.1146533
266.0593	-5.25114	4.463528	2.322507	-1.415086	6.373293	-17.25807	-4.283122
266.4005	-2.533994	1.033686	-3.706285	3.961758	-0.881388	-17.10788	-8.125474
266.7419	-4.554231	-6.864166	-6.169906	5.777822	-2.443931	-9.467783	1.554086
267.0831	3.219964	-6.302851	-15.20387	-0.4625601	-4.429191	-7.617208	7.468651
267.4244	3.622342	5.552117	-9.822838	-10.17931	0.9947691	-14.14097	8.998948
267.7657	2.457064	8.071808	-15.50768	-16.98778	-2.636598	-21.02427	-2.243945
268.1069	2.066704	2.562551	-12.27018	-9.100451	-1.70975	-19.57353	-11.53185
268.4482	-0.6179976	-5.472342	-14.66544	-6.849946	2.417203	-9.531614	-14.18521
268.7894	-0.8728469	3.079876	-5.82241	-8.869764	9.07634	-15.18891	-3.939034
269.1306	0.9867169	7.07521	-2.182505	-5.062113	4.466368	-12.8824	8.661293
269.4719	5.095279	18.19401	3.064996	-3.691311	4.119705	-16.34283	3.594829
269.8131	7.698254	10.92858	3.655198	-11.27374	8.226807	-10.76986	-9.329138
270.1543	12.32228	6.243807	10.54146	-12.80076	5.842373	-12.09492	-8.59539
270.4955	-3.705885	2.754215	-1.359634	-14.79625	3.767842	-10.65517	1.39066
270.8367	-13.4381	10.31437	-6.808032	-3.831094	1.755357	-3.964962	8.435904
271.1779	-19.07466	18.93634	-13.35789	-11.53354	-1.967186	-4.819626	-1.872999
271.519	-4.198491	21.20919	-7.777986	-11.79862	-5.679406	-8.235015	0.03206635
271.8602	-2.784487	18.03899	-8.638426	-17.16947	2.669806	-12.79741	-0.7795908
272.2014	5.08545	16.09921	-1.180805	-8.469177	5.26842	-11.02014	4.261604
272.5425	2.925022	3.82606	-0.7789563	-10.91975	-2.241801	-14.52584	-11.05195
272.8836	7.810721	1.566536	-3.362124	0.4992976	-5.104665	-10.52989	-10.6323
273.2248	-3.650198	8.311121	-5.227777	-13.73803	-3.368765	-15.06953	-8.002558
273.5659	-6.681176	17.43658	5.577596	-17.35202	3.47866	-14.70467	-2.396791
273.907	-7.334938	4.405233	-1.39863	-12.21039	8.158917	-13.62043	-7.935559
274.2481	-3.129078	3.845496	-9.547713	-1.359167	25.65479	-4.269074	-4.485827
274.5892	-0.2708931	2.553343	-10.05895	-22.99558	10.40444	-6.564609	-3.508596
274.9303	6.739514	9.4448	-1.884333	-24.52181	1.482592	-3.419806	2.228834
275.2714	14.11186	10.53728	-6.404313	-22.57576	-7.614086	-11.61986	-0.3371691
275.6125	7.659428	2.701308	-6.23675	-8.188525	6.672246	-10.58282	6.759008
275.9536	12.35878	-1.677036	-5.124127	-5.21202	-2.613496	-9.625584	8.174416
276.2946	18.89502	9.107373	4.0675	0.08280846	-2.058748	2.80127	15.32832
276.6357	10.2768	21.67862	1.846944	-12.77455	-4.330866	-8.46519	-5.481209
276.9767	-8.551355	12.61352	4.060606	-6.906612	-13.00316	-7.656204	-3.317279
277.3177	-20.38705	-4.787893	4.988375	-7.480535	-18.56478	-1.331877	-5.094722
277.6588	-11.67	-2.348798	6.033338	-0.9099017	-6.973676	6.421719	9.987912
277.9998	-11.22747	5.288743	3.775707	-9.862874	7.197124	-10.50342	4.68607
278.3408	7.078	10.11306	-6.269734	-3.127684	10.61982	-27.41469	14.32305
278.6818	12.9937	0.9935903	-11.55651	-4.17817	9.621507	-23.61582	11.05604
279.0228	11.84879	3.316771	-8.264755	-2.429403	13.62582	-13.90624	12.84747
279.3638	-8.28139	3.902062	4.96718	-11.92673	8.332306	-10.09781	-1.625126
279.7047	-5.078721	1.624383	4.843293	-5.910021	8.218404	-10.70763	1.663576
280.0457	2.609906	-0.9118934	-4.841295	-3.443232	2.707057	-9.076659	11.41841
280.3867	5.393489	2.711843	-8.651493	-14.36566	8.735951	-11.36198	11.25512
280.7276	-6.883314	2.764806	0.2408939	-21.82917	0.1284834	-9.950676	-3.79427
281.0686	-9.482942	2.331315	1.370395	-11.42753	-2.137842	-3.460952	-4.215044
281.4095	-1.483141	5.051058	2.997696	0.4493289	-11.49757	6.582628	4.709272
281.7504	11.08592	6.293544	-2.165307	-3.645503	-8.357147	2.831893	8.454602
282.0914	6.271205	-2.423347	-9.997533	-18.22902	-7.870961	-10.3575	4.27327
282.4323	10.95296	-0.845803	-8.776141	-23.11446	-2.082796	-10.62616	-1.681714
282.7732	-4.240324	9.422462	-9.929169	-42.34379	-7.07451	-19.23905	3.485074
283.1141	-8.505211	14.11189	-8.863543	-43.37736	-8.810221	-13.76498	6.953286
283.455	-15.78991	-1.221842	-15.10379	-26.63158	-0.9763709	-13.40625	3.212245
283.7958	1.391777	-6.87039	5.695086	-5.826961	2.046137	-6.043287	4.64176
284.1367	-2.997515	-6.961652	-10.13208	-8.777497	-4.839074	-8.075776	-1.815042
284.4776	4.215418	-3.880689	-14.07652	-7.009526	-9.432045	1.534061	-1.061614
284.8184	6.77084	-0.4970182	-15.49745	0.2963938	-1.438134	-2.348322	-7.522256
285.1593	0.6983328	9.366221	-1.979631	2.982749	-0.2062772	-13.70612	-1.901554
285.5001	-8.492144	5.138707	-9.608163	-8.491119	2.677055	-20.53763	-6.578857
285.8409	-17.45267	-4.505776	-6.944929	-23.43986	6.631516	-29.18672	-3.105355
286.1818	-14.4637	-2.230279	-7.342331	-24.78294	5.715434	-27.88169	-4.962437
286.5226	-4.089365	9.584626	-8.101066	-14.90073	-2.294245	-12.18118	-0.3345141
286.8634	9.562322	9.051215	-9.170026	-23.4114	-3.393789	-1.475527	6.163104
287.2042	-2.889523	17.38506	-11.35271	-35.36766	0.7407233	-17.63341	12.53357
287.545	-12.78061	9.558285	-7.434855	-18.17874	7.658467	-22.47046	-3.87945
287.8857	-9.712321	8.215513	2.544158	-1.956642	8.00721	-16.50898	-12.74282
288.2265	-8.671483	-0.4817326	6.723158	-1.565513	-5.876239	-6.138196	-6.515018
288.5673	-1.279244	5.63621	-1.226952	-4.291077	-17.31701	-8.834241	6.957613
288.908	10.3592	-9.219388	-2.673114	-2.31758	-9.397669	-3.909919	-0.05050488
289.2487	22.14306	-1.083518	0.8085963	-11.03527	-2.108621	-12.82249	-5.99797
289.5895	13.34111	3.850531	-3.86384	-13.00944	-3.293936	-17.13778	-7.618831
289.9302	-2.621389	22.64794	-13.25411	-19.87934	5.230866	-21.51528	-2.727882
290.2709	-4.288893	2.945963	-16.1068	-9.211503	7.161082	-20.82434	-1.84232
290.6117	-6.747532	7.128006	-16.10194	-31.19388	4.840889	-46.63377	-2.589116
290.9524	-3.864203	-0.7532768	-11.61104	-21.90219	5.930596	-39.05384	-7.192621
291.2931	-2.867978	3.141498	-4.614615	-7.816572	5.889418	-21.32247	1.885921
291.6338	10.27862	-10.93291	-6.999397	7.040762	-7.783968	-0.6780831	-2.103281
291.9744	1.944428	-7.103756	-14.67432	-10.56451	-8.574249	-5.25067	0.6792846
292.3151	7.911124	2.445316	-8.681291	-10.35334	-2.387419	-2.254324	3.348243
292.6558	4.586066	5.26955	1.748327	1.938016	0.9782577	1.754814	9.274725
292.9964	3.979328	-1.378994	-7.633839	-7.978587	5.970821	-7.159007	-5.176681
293.3371	-6.213062	6.95728	-14.9311	-13.15824	9.046614	-18.48921	4.601492
293.6777	2.974077	19.23063	-11.96802	-11.00295	4.146472	-20.44331	-2.549896
294.0183	2.488249	22.81993	2.093674	0.2018839	0.2915503	-7.999727	-1.622001
294.3589	10.77339	10.61786	8.004021	-5.154278	8.743249	-8.356339	-3.314994
294.6996	2.47789	11.55472	10.04659	-12.58093	9.848219	-11.00725	7.037187
295.0402	-0.4033737	12.97527	-2.23412	-13.89537	5.652828	-3.220459	-4.492442
295.3807	0.9914494	12.25369	-3.659312	-12.56531	-5.437569	-10.92518	-2.754733
295.7213	0.5544161	13.41963	1.314443	-14.83385	-5.709309	-28.42563	0.4808226
296.0619	-6.726802	8.729927	5.827104	-14.07749	0.02423295	-17.82725	1.990132
296.4025	-5.879858	2.005067	10.45039	-9.25732	3.289509	-1.486717	-6.313481
296.743	13.77147	-7.169346	13.73061	-8.122639	-5.829511	1.206843	1.909413
297.0836	7.592197	-4.536655	7.593892	-17.13355	-17.54559	-12.28464	-2.179061
297.4241	7.868172	2.624438	5.531418	-23.52159	-5.674716	-4.762689	0.007845159
297.7647	3.2588	2.055673	6.349803	-17.12878	12.88801	-8.038993	0.1236562
298.1052	12.7961	9.508037	1.287606	-13.83449	15.95179	-21.87127	0.371178
298.4457	13.75992	6.261477	-15.45897	-12.93682	1.584602	-26.41479	-12.51027
298.7862	21.91397	4.354458	-12.53051	-6.949786	1.278546	-12.5934	-9.604072
299.1267	17.09761	-0.8517728	-15.22398	-6.524302	-3.06575	-6.491272	2.690055
299.4672	4.309489	15.37259	-4.963406	-17.18684	-7.678834	-17.49369	13.27488
299.8077	2.951245	11.17077	0.7106518	-12.39279	-15.15877	-17.29048	-3.426474
300.1482	6.767229	5.671127	6.694717	-6.540277	-12.84925	-7.000206	-15.11633
300.4886	3.717463	10.74807	-11.38285	-22.64139	-17.03428	-15.46708	-19.16832
300.8291	-7.98891	21.92119	-9.382521	-25.60098	-7.809771	-28.29104	-5.48482
301.1696	-8.515671	15.17037	2.363884	-13.02125	-1.790856	-29.46532	1.099245
301.51	-0.8347075	1.069756	5.853887	-4.908451	4.377579	-13.50896	-1.16771
301.8505	7.70428	4.112489	-8.679146	-3.257474	-1.619656	-5.169892	-5.416941
302.1909	6.815625	19.3518	-2.570389	-7.358895	-10.11857	-2.408594	-8.785338
302.5313	1.408167	20.41318	-2.538677	-13.0658	-12.76843	-5.725459	1.955522
302.8717	1.365081	14.57857	-3.741512	-7.426469	-5.73096	-3.274622	-0.1939883
303.2121	2.63987	2.677656	-4.487273	6.105665	-2.278381	0.2264272	-6.927435
303.5525	6.589131	2.810488	12.35555	10.32422	-1.837118	5.009958	-22.33639
303.8929	1.327238	0.1759409	3.727897	-5.893868	-3.419339	-0.1316934	-20.13887
304.2332	-1.454693	5.860813	-7.042617	-3.29128	-5.954504	-13.82283	-10.58801
304.5736	-12.32562	6.608653	-13.87099	-16.07037	-5.671004	-17.95622	0.9351903
304.914	-9.130915	5.651171	2.57122	-14.02019	-6.860612	-4.567843	-7.396404
305.2543	-10.59545	11.19928	5.457135	-16.43934	-3.110986	-1.639013	-8.126411
305.5947	-13.81016	10.59958	3.167141	-7.791519	-0.1416486	-2.285943	-0.6173736
305.935	-16.0466	3.633522	-0.2452651	-12.18596	0.4198164	-5.45159	5.336792
306.2753	-13.70903	1.58903	10.55343	-6.622595	-13.16058	-5.60813	-3.646436
306.6156	-7.594921	8.979652	7.635016	-13.45012	-8.047213	-17.92346	-4.400087
306.9559	7.441782	9.136421	-1.814653	-21.85583	-2.919737	-6.499617	5.212684
307.2962	13.96504	1.437694	-10.02482	-18.35538	1.091189	-4.313945	6.725126
307.6365	4.497918	-2.704582	-6.005119	3.602659	-0.4359596	-2.9812	6.719303
307.9768	-6.386964	6.380387	-10.39022	-8.988681	-4.317773	-23.40694	-2.059224
308.3171	6.285723	5.717839	-6.182589	1.482963	-9.949892	-15.84296	6.261497
308.6573	9.313958	10.21993	-3.621934	-6.627145	-4.591873	-3.40992	3.219606
308.9976	5.073703	9.657722	0.252805	1.25085	-0.6366426	10.69919	7.978767
309.3379	-2.967674	15.42708	-6.881397	-18.74414	-12.22376	-1.644416	-5.891941
309.6781	-0.9313948	-0.1199357	1.921866	-5.312924	-17.16706	-11.271	0.5034758
310.0183	-10.15222	8.963398	7.127996	-19.75414	-12.86984	-15.6138	0.1821412
310.3586	-16.72762	15.89666	2.259778	-13.14363	-4.433353	-7.292325	9.99533
310.6988	-1.692638	10.84257	-2.759601	-12.91232	3.472499	-8.346747	8.18867
311.0389	13.15386	-1.606203	0.9076062	-6.347527	6.361026	-8.902713	7.131822
311.3792	17.9332	-3.81327	6.874412	-0.5484111	1.296612	-15.97355	4.749897
311.7193	10.77121	2.793206	-3.223218	3.046221	1.639246	-3.104941	4.495261
312.0595	3.852787	8.52703	-14.54511	-8.219084	-2.214281	-5.686938	6.496647
312.3997	-5.907006	13.02313	-14.60878	-18.28018	0.7338239	1.836104	0.2407457
312.7398	-10.84123	3.047662	-10.9003	-12.89337	-5.652023	-9.073575	5.881297
313.08	-6.186139	6.302172	-7.90205	2.658124	2.709535	3.068254	7.946448
313.4201	-0.1809721	1.436893	-0.7446844	3.435573	-3.035475	-0.3663519	5.801915
313.7603	5.581635	-11.31081	14.74577	5.92487	-1.262208	-6.136714	-0.8837871
314.1004	14.25697	-18.9927	11.09435	-10.7739	-13.59999	-24.0213	-5.962646
314.4405	20.48607	2.23492	5.921262	-9.35525	-11.11378	-6.063996	-5.154681
314.7806	18.60083	13.84184	-3.525435	-8.856813	-13.20713	-0.5114601	-1.811156
315.1207	2.944251	17.06644	-5.59109	1.150011	-3.160571	-0.8498954	10.88847
315.4608	-0.5260471	7.542722	-8.993521	-2.157499	0.9903865	-16.34635	1.002918
315.8009	6.58361	8.478482	-3.347786	-6.557631	2.957441	-7.051189	-8.148654
316.141	7.430036	7.153163	0.00835043	-15.36499	-5.084147	-12.60369	-6.204964
316.481	7.982568	7.630826	2.510607	-15.10172	7.005998	-1.206363	10.44676
316.8211	3.064658	4.102842	-0.1934451	-7.272613	13.8286	-13.21858	12.8494
317.1612	0.689391	3.695824	-2.943693	-4.271508	12.85662	-11.63242	11.44077
317.5012	-7.219206	-0.4697432	-2.279422	-17.65	-1.125707	-20.81562	0.5426203
317.8412	-9.414521	-10.29108	1.033783	-9.578092	-3.840745	-13.12326	-4.269245
318.1812	-3.88072	-8.477085	-6.703782	-2.771579	-9.74882	-12.69274	-3.859557
318.5213	7.055611	-2.722927	-7.220249	4.378118	-1.221813	-6.202944	6.096339
318.8613	14.82688	5.211612	-5.275868	-1.70198	0.5765623	-3.971207	-5.624605
319.2013	13.43352	5.001035	-3.238408	-10.09515	5.430953	-13.35484	-10.17047
319.5413	10.49777	2.835807	-1.269632	-15.91259	-2.467385	-9.218621	-6.029068
319.8812	2.649172	3.604667	2.639471	-17.12007	-1.301777	-8.415764	2.443444
320.2212	2.52045	10.19526	0.3289422	-7.88941	-10.40238	-7.222061	-8.159635
320.5612	6.482868	14.02916	-6.273953	-10.93679	-9.000503	-7.777595	-14.16122
320.9011	12.56298	12.64095	-5.201947	-9.604364	-3.595725	-13.89127	-9.554495
321.2411	7.872787	0.1463376	1.55344	-7.45698	1.821672	-18.12134	-1.239246
321.581	2.97422	-1.058931	-4.535112	-9.140842	-7.224956	-20.68181	-0.6692697
321.9209	2.751502	2.618356	-0.3089866	-10.85968	-13.31646	-9.787193	-3.294083
322.2608	9.568873	7.375117	-3.464559	-3.759604	-10.96831	-7.541016	-7.038219
322.6007	15.31939	9.079397	10.33789	8.496684	-1.883893	-3.107981	-10.25606
322.9406	8.467441	12.6651	2.668451	-2.030714	-3.370852	-9.407198	-7.915241
323.2805	-5.26427	19.91903	3.08608	-19.82341	2.692115	-16.46694	3.923838
323.6204	-26.44473	8.87354	-10.87171	-33.28595	6.444257	-20.31534	2.963924
323.9603	-21.73505	11.85432	-4.127762	-15.87777	7.151396	-8.985234	1.368479
324.3002	-13.20098	0.4455863	-0.7499709	-0.3075719	-8.135691	-5.660138	-0.2143677
324.64	-2.61529	-2.305531	-6.435758	3.729566	-8.166636	-9.889228	7.098577
324.9799	-7.863237	-1.577018	-6.674719	-16.83359	-5.794586	-16.32597	6.520278
325.3197	-1.730999	15.19344	-3.856925	-18.15385	3.736463	-12.98519	12.54593
325.6595	4.983499	10.36458	-4.524923	-9.483543	3.613755	-8.540134	4.764056
325.9994	14.32845	6.142028	-21.90897	-0.2485366	6.648777	-3.003974	-5.67646
326.3392	14.01591	-5.474927	-18.68613	4.930691	-2.12164	-0.8047295	-19.26184
326.679	0.8244926	2.098382	-7.127939	5.835165	6.583372	-5.547057	-15.22539
327.0188	-10.06962	-2.473283	-1.473273	-3.986488	8.244096	-10.33758	-19.39711
327.3586	-8.639032	6.6274	8.412805	-4.412057	6.687762	-9.100522	-2.185345
327.6983	-3.955008	2.94788	11.94763	4.595989	-4.938657	-0.2841195	-12.52688
328.0381	-1.024706	15.81966	12.00112	-4.193483	4.98634	-0.7474023	-9.149166
328.3779	-1.531278	8.317791	-9.798277	-14.86573	12.78159	-6.111566	-18.63562
328.7176	-0.3474104	8.018966	-11.72773	-18.6405	5.593338	-20.07825	-4.27836
329.0574	-1.86991	3.363421	-9.927608	-9.754733	-1.107056	-13.7602	-8.859648
329.3971	-7.877515	15.88609	-1.12889	-22.22388	3.303752	-13.97657	-0.9076469
329.7368	-0.9618663	17.6673	-8.414804	-25.01799	9.600994	-8.456897	3.406638
330.0765	2.47403	16.12281	-12.49012	-20.11564	7.635638	-4.535877	7.257542
330.4163	4.763728	1.272012	-14.36922	-0.9442791	12.46679	10.04794	-2.689956
330.756	2.832755	12.39917	-6.974698	3.809889	7.541908	3.057903	-5.256188
331.0956	2.558211	15.00781	-1.322864	-6.963042	0.2958262	-7.947555	-5.444554
331.4353	0.3956825	7.272122	8.019812	-4.733324	-3.728664	-12.56047	-6.151752
331.775	-10.34752	-3.227832	7.64794	-1.741231	-4.3047	-0.5931654	-3.03701
332.1147	-1.241018	10.52412	9.976993	2.802895	-10.36316	0.3916752	-0.8136352
332.4543	-0.4010272	12.83722	2.652462	-12.58863	-8.720429	-18.23528	-3.030119
332.794	2.361263	7.221156	7.014646	-5.251313	-7.93817	-23.74743	-4.918707
333.1336	-10.75458	-1.350263	3.693988	2.941204	-6.363961	-19.67981	0.8244439
333.4732	-2.039612	-2.527992	2.243128	9.503576	3.270237	1.44644	3.125644
333.8129	1.446301	2.552706	-9.969528	-12.96905	13.79469	-0.1574438	-2.895418
334.1525	8.389836	11.46522	-8.805322	-15.71376	7.444228	1.182259	-8.182135
334.4921	4.75542	5.543411	-9.467283	-15.71694	-5.407994	-11.61221	-13.18607
334.8317	7.517147	-2.244539	-3.22786	-8.185531	-1.253657	-5.849496	-5.025702
335.1712	1.259872	2.263095	-3.376101	-17.41248	6.10266	-12.95768	0.126034
335.5108	7.520372	6.303369	-1.393069	-16.45928	1.009751	-8.676428	3.088645
335.8504	2.126878	12.68232	-8.816597	-24.74582	-5.673815	-0.8623038	-4.886343
336.1899	-0.9474221	15.32506	0.1208361	-17.71712	6.684936	14.92328	-1.655069
336.5295	-13.86256	12.30954	5.86683	-16.75008	12.35017	3.459996	-3.977487
336.869	-9.120668	-0.5338857	6.835776	-8.868857	5.532468	-1.924362	-3.944844
337.2086	-7.999879	5.182547	-9.133797	-13.45944	-4.859096	-2.925717	-14.37903
337.5481	8.920074	4.059531	-11.03855	-1.737325	-2.295805	5.564611	-13.70643
337.8876	15.03353	4.159301	-11.63037	2.747491	-6.224649	-2.20959	-9.105817
338.2271	11.27817	1.530992	-3.082138	-4.23741	2.863521	-4.584894	6.572787
338.5666	2.793782	7.988728	-0.26366	-18.02793	-1.473883	-9.02576	8.97644
338.9061	5.780937	-2.435756	0.1562145	-15.70787	-3.629747	-5.519815	2.542904
339.2456	3.308964	-5.887558	-7.790768	-5.652228	-15.41587	-5.001953	-10.00821
339.585	-9.127904	-2.177971	-1.83669	-12.76128	-11.61847	-3.490795	-10.23313
339.9245	-6.723174	3.679401	-4.539952	-3.551241	0.3159544	-13.3357	-6.378733
340.2639	6.969168	-2.0134	-6.800697	-1.927318	6.704912	-11.25747	3.674124
340.6034	12.60349	-5.537259	-9.552707	-1.576629	1.88502	-11.78949	8.223017
340.9428	8.200298	2.079926	0.6837381	-11.85228	7.497141	2.731037	7.47617
341.2823	-8.587709	0.3166966	-2.241402	-5.276017	11.18824	3.303842	-4.176786
341.6217	-15.69967	-1.022322	-0.6568332	-8.45121	9.866549	1.319217	-10.87276
341.9611	-7.937787	0.2123637	-9.620494	-7.013078	-4.562543	-7.390798	-6.96163
342.3005	6.68219	1.015134	-7.939551	-5.211307	6.429112	-3.52802	-0.1910321
342.6399	9.083619	2.00204	2.722891	-18.03559	-5.745674	-8.053333	-0.3674854
342.9792	1.618981	-2.690224	11.72628	-30.81044	-7.356245	-18.0208	-1.084524
343.3186	-5.612558	3.093758	-0.4225033	-41.14296	-8.938187	-16.2909	-3.091833
343.658	-6.892317	8.918452	-1.519601	-29.95259	-3.007421	-5.533682	-4.521137
343.9973	-2.340186	27.22889	-1.822138	-30.07954	-1.058636	-15.86829	-4.751388
344.3367	4.070425	17.03894	3.269282	-20.27044	-5.027847	-17.95606	-2.952693
344.676	4.342485	-0.2097664	5.193735	-19.54701	-3.786099	-12.47767	-7.020758
345.0153	10.35055	-4.086598	7.72918	-0.9942074	-5.821545	-4.011791	-12.31761
345.3546	12.08486	9.775403	-3.262427	-12.18121	0.3749371	-22.10566	-10.29259
345.6939	13.6882	11.8454	-4.727181	-23.35674	-1.116921	-29.85355	-1.314816
346.0332	13.5697	-1.801984	-2.850298	-19.08136	5.767717	-20.59846	-2.113429
346.3725	-0.355553	9.364115	-3.371574	-12.22533	5.021238	-15.63086	-2.639367
346.7118	-3.780428	21.57045	-6.703461	-21.06607	0.9410207	-14.15363	-5.045669
347.0511	-8.306294	20.37935	10.84836	-17.87112	-8.536616	-4.706524	0.9436482
347.3904	-8.537301	10.49818	6.564119	-14.1115	-3.700928	-3.939801	2.105291
347.7296	-9.703024	14.4334	9.153378	-21.35385	4.394998	-18.68429	5.938048
348.0688	-3.969955	18.51755	1.985058	-25.55609	12.64138	-22.30584	1.63174
348.4081	3.991402	15.42324	18.57154	-10.43341	14.32481	-12.53844	5.208495
348.7473	1.601236	9.455409	1.931598	-4.750604	4.951225	-9.317736	7.25342
349.0865	2.169511	-4.247007	8.859938	9.093534	-0.7951557	-4.306099	4.83159
349.4258	-8.237127	-5.606602	0.2433693	5.473906	-8.623727	3.153617	-5.764427
349.765	-0.0008171435	-1.420369	0.9845933	1.727447	-1.218152	3.840989	0.9144924
350.1041	2.637299	-3.537047	-4.62971	-5.409412	-4.209019	-10.55239	-0.2633639
350.4433	6.150587	2.08388	4.201799	-5.426364	0.8434549	-19.9208	0.4411651
350.7825	-5.775778	15.85925	-1.063805	-17.77209	-11.95876	-26.12614	-7.833521
351.1216	8.296864	20.2624	-5.058943	-16.84987	-7.506533	-16.58374	-6.650523
351.4608	-0.4784189	8.068147	-4.96856	-9.218818	-3.913551	-16.22845	-1.716644
351.8	-1.696154	5.592235	0.5976911	-3.213054	8.123059	-11.34673	5.465596
352.1391	-14.12876	13.23916	3.586503	-2.731664	5.572085	-15.06903	5.370235
352.4782	-10.63356	22.00475	0.6270102	-8.510289	7.747803	-21.19795	-1.546821
352.8173	-9.877717	16.88371	-3.427868	-15.92429	8.12534	-13.63914	-5.601503
353.1564	3.785754	9.971147	0.9278113	-15.76375	9.985715	-7.602627	-5.967028
353.4955	19.21935	-3.26492	6.148921	-2.906371	2.380971	-5.380692	5.25021
353.8346	20.6665	-0.3413217	3.387284	-2.298648	2.12352	-16.35493	11.62292
354.1737	17.26105	5.707981	-8.678152	-8.659606	5.794971	-13.46007	13.58903
354.5128	5.66029	18.88006	-3.098947	-7.745841	5.756279	-11.97655	11.25973
354.8519	-3.384108	5.328465	-5.128178	-1.432343	-3.523394	-9.496278	12.3187
355.1909	-9.755366	0.5444836	-5.164055	-6.327753	-10.39793	-4.018411	12.67588
355.53	-12.71183	7.388495	-11.82581	-21.31409	-2.64931	-1.636104	8.585467
355.869	-9.576782	19.44089	-3.386048	-12.96998	-1.353175	5.216365	14.17145
356.208	-8.527089	18.79488	-9.352813	-4.228167	6.034003	1.023528	6.733611
356.547	-8.091081	6.835001	-10.48234	4.694052	13.0554	-2.348626	10.53403
356.886	-6.435697	0.2962426	-7.170657	-9.563793	14.38822	-5.946322	5.025423
357.225	1.333676	-1.610472	1.208502	-1.249657	9.24408	-8.468764	7.344496
357.5641	-6.001007	5.583654	5.231593	2.053419	3.987242	-10.3942	8.235679
357.903	-10.76023	9.356112	0.6639766	3.37432	11.21427	-10.975	13.77385
358.242	-8.660517	15.33388	-3.481573	-18.5335	7.778407	-9.976738	5.742557
358.581	-0.8378797	20.56936	5.979345	-25.8541	8.51664	-11.19631	0.3384722
358.9199	-6.33258	8.954351	14.84261	-24.54074	12.21338	-10.41037	-6.091548
359.2589	3.256871	7.268308	6.842186	-9.176763	17.69257	0.1267807	1.175733
359.5978	12.62064	5.689913	-1.882872	3.129131	9.560163	-4.705374	5.495104
359.9367	20.04569	4.524424	-2.223808	6.717548	3.082796	1.926637	17.66345
360.2756	16.24574	2.390443	-5.377768	-0.7822998	-2.143337	3.823065	12.23165
360.6146	3.961747	4.354972	-4.780745	-2.321159	-3.289574	2.908964	7.42606
360.9535	-5.191236	10.08092	-4.087256	4.781147	-0.2523546	-5.342925	6.312128
361.2924	-15.1277	11.3957	-6.482897	-1.758716	7.378303	-5.346969	13.03191
361.6312	-9.878463	7.253454	-12.37088	-2.778549	6.468644	-1.080195	6.773823
361.9701	-9.164227	2.752763	-14.30275	-11.97363	0.9750861	-16.47746	3.40299
362.309	1.525789	5.89905	-7.031995	-11.41856	-0.829177	-12.7952	1.173944
362.6478	3.679586	16.85203	3.342906	-9.669792	-3.473412	3.491626	12.76325
362.9867	1.106114	11.34631	7.454594	-6.962553	-1.737237	14.16422	14.44647
363.3255	-10.08063	7.673143	9.327322	-14.91934	2.317096	5.329212	16.78464
363.6643	-5.693692	-3.148217	2.737978	-17.17719	12.8736	9.83437	14.91912
364.0031	6.925082	4.912327	-0.9728262	-2.229877	20.40435	21.71513	14.22018
364.3419	11.2547	6.764609	-13.11739	-1.548057	13.71579	15.99499	9.419932
364.6808	0.08033032	4.949197	-11.39445	-6.167708	8.797766	2.237818	3.873616
365.0195	-10.21208	4.498923	-17.953	-11.39377	13.41342	8.418966	11.22447
365.3583	-11.19276	16.0752	-2.189116	-2.295225	20.96398	23.58942	19.31177
365.6971	-0.1750148	16.28994	-0.9519429	4.772235	17.29416	16.98726	21.55847
366.0359	18.13861	5.355252	4.623161	18.84032	19.90276	9.41396	21.7692
366.3746	19.14366	4.123642	2.199609	10.84379	30.61039	6.619862	25.74059
366.7133	11.98399	18.8655	3.730339	-0.5798546	35.39657	19.13691	26.97061
367.0521	-0.0632522	19.73192	-10.46767	-5.759812	32.60616	18.70351	19.69172
367.3908	-2.621552	10.67026	-10.10227	14.65412	32.872	19.50965	17.49589
367.7295	-9.309984	-1.689259	-2.872868	14.93987	27.20937	18.66318	21.56981
368.0682	-3.757552	3.146078	9.195948	11.67436	30.06806	17.46082	37.86182
368.4069	-0.02309171	-0.6740155	-0.1138384	8.939795	25.43045	16.941	42.20271
368.7456	-1.199631	8.444378	-5.273723	12.81392	30.94565	15.23395	37.83743
369.0843	-14.01139	12.93918	-6.089409	6.322873	21.85174	19.93849	30.20294
369.423	-12.77704	18.09502	0.1092117	3.17771	25.27353	14.08752	33.48951
369.7616	5.936577	11.21448	-4.94639	-0.1203316	30.01594	17.59303	31.04055
370.1003	12.04294	2.859238	-0.6927882	-1.770942	33.46707	22.00925	29.39273
370.4389	-0.231702	3.201085	-1.108553	-3.401566	27.12656	27.62046	36.42542
370.7776	-8.829777	5.950649	-10.41916	2.151317	27.24159	33.98611	35.80991
371.1162	5.130757	1.340127	-9.997937	16.04311	36.93572	31.08921	33.72001
371.4548	10.62888	-10.71339	1.443594	31.3618	35.33088	26.61332	37.9754
371.7934	1.870614	-5.217912	7.363592	30.55264	30.79212	21.50305	42.63467
372.132	0.382141	8.532572	11.37142	22.12243	31.38528	32.33867	37.46008
372.4706	1.485504	17.86806	3.945999	16.47971	38.22433	20.88823	38.26329
372.8092	4.284143	20.69332	-11.23064	11.39508	47.85096	19.59645	42.91377
373.1477	5.198431	0.02252595	-15.49656	8.831024	48.87482	33.27472	47.6901
373.4863	10.43798	-2.921304	2.525487	16.01268	43.7189	55.93844	57.83025
373.8248	10.71218	4.652099	15.33598	25.36201	37.12526	40.75813	59.50102
374.1634	16.15812	16.82296	13.77837	30.09128	36.3021	34.98884	62.18672
374.5019	19.31585	-2.936341	0.6245596	34.86836	34.50093	43.50718	54.80865
374.8404	22.25782	-6.482429	1.472757	34.77039	39.50793	60.16703	60.24082
375.179	23.0282	-4.108782	-3.787146	31.24157	51.83514	60.5577	55.37951
375.5175	9.783138	4.985312	-10.77157	12.9697	52.22469	43.22749	65.92567
375.856	-4.058145	8.258002	-17.90586	12.81772	41.28257	38.77427	70.49568
376.1944	1.150302	8.919732	5.517279	26.61579	37.51378	45.54214	67.24296
376.5329	13.49936	4.569645	10.78831	40.96919	49.93484	66.69301	55.33366
376.8714	5.10358	-0.6981662	8.438555	26.30166	51.29903	64.39173	56.86877
377.2098	-8.384351	10.8078	-11.24858	16.19539	44.85685	57.19775	73.53252
377.5483	-3.701355	23.01268	-13.24911	27.21799	34.16444	67.13937	86.06954
377.8867	8.103228	17.47642	-6.527919	43.94054	41.29892	75.8171	97.08253
378.2251	20.52666	-7.610402	3.246921	52.04862	46.63573	74.44667	98.31659
378.5636	18.43651	-18.17824	-0.8461412	50.68877	57.55417	54.23867	83.32059
378.902	15.01643	-9.77724	-3.368828	57.14048	56.21067	63.91471	77.80064
379.2404	12.93973	6.198779	-3.11074	45.82996	51.22101	66.4169	82.4651
379.5788	18.21237	9.621909	-6.24885	35.42689	51.2883	70.20148	93.12668
379.9171	7.85077	9.928251	-8.58519	40.07831	58.11093	67.7252	96.10471
380.2555	-2.890856	15.32004	-2.01466	54.43722	68.72971	83.72849	106.3541
380.5939	-13.30431	23.62306	-4.709096	37.82663	68.75332	68.02948	105.9225
380.9322	-0.5787424	15.13387	-2.014439	37.28613	76.95812	72.40563	97.23684
381.2706	0.8690917	-4.865134	-5.733621	43.28352	76.37064	69.07018	83.78194
381.6089	3.491683	-9.031399	5.823124	51.10393	68.71607	85.86967	86.34077
381.9472	3.528037	-3.147761	3.43583	47.27981	59.11589	75.97514	99.05179
382.2856	14.66186	0.9994954	8.589746	58.42042	57.63663	94.44145	106.5762
382.6238	3.585663	0.02605541	4.452279	56.95731	67.71135	86.91708	106.8888
382.9622	-14.38152	10.05358	4.285684	50.14185	70.77114	78.44533	109.5721
383.3004	-19.26176	16.89427	-9.809848	35.81652	66.94398	53.88459	112.1044
383.6387	-4.115198	11.42169	-12.18069	46.69754	67.50176	74.71098	116.5213
383.977	0.1073962	-1.00074	-5.486413	52.56536	75.24171	102.6945	115.8538
384.3152	3.299263	-7.039227	5.136893	59.06192	73.23607	106.6968	125.3291
384.6535	4.522386	1.47146	-2.157968	57.40619	68.93296	94.81214	126.6169
384.9917	-0.2035078	-4.20555	-1.709696	69.11233	74.36178	94.66797	134.0602
385.33	-14.17265	-1.558266	3.357916	65.11926	74.51009	104.0987	128.3445
385.6682	-6.695084	2.448153	8.386111	59.11432	76.73879	109.0561	121.4638
386.0064	-1.86775	16.07467	-2.09304	60.67324	78.67429	110.2703	120.87
386.3446	-5.944559	18.78557	-2.080604	62.63815	81.4896	120.2435	130.6473
386.6828	-14.32137	15.52555	-7.624011	59.21811	91.30174	115.5522	136.5616
387.021	-9.560954	13.40487	-1.912121	48.72676	106.4043	114.6727	129.3628
387.3592	-10.17021	7.848268	-1.226492	60.17846	109.6824	115.8664	125.5395
387.6973	-14.05162	17.30427	-4.30222	61.40928	105.3298	129.5302	137.3907
388.0355	-15.35424	14.99364	-12.56712	72.80381	107.6696	130.5712	141.0462
388.3736	-5.407797	12.08418	-4.636545	81.36509	110.9785	140.8517	140.9741
388.7118	1.729938	7.757802	1.061211	104.6381	108.4969	155.0796	144.3625
389.0499	7.527904	10.08497	5.598836	112.1331	110.0192	157.4561	162.0265
389.388	14.34019	-0.5918848	5.27212	118.7511	114.0108	153.2216	162.8457
389.7261	19.56036	-2.192845	1.511469	112.8094	126.7817	155.7717	154.0665
390.0642	10.60231	-5.095555	-12.4877	101.5784	121.8952	167.2461	151.1657
390.4023	5.383873	0.3518074	-0.328475	109.7882	126.5	172.1032	161.0267
390.7404	-0.4938905	7.197633	1.137226	106.7733	131.3537	163.5052	185.3384
391.0785	-3.779294	28.90859	-3.172701	97.99545	149.303	158.0956	195.6624
391.4165	0.7849538	19.70342	-16.10118	94.66724	149.2934	161.5704	193.9704
391.7546	9.083811	5.904794	-2.798658	114.3468	146.6285	177.9791	183.2111
392.0926	5.194489	-5.717305	4.74238	132.0934	147.7714	181.2995	184.2705
392.4306	-4.729513	-5.908514	5.335937	145.3002	159.0066	180.3039	177.2559
392.7687	-16.65774	-0.08169287	-4.221663	129.8551	169.5254	164.6162	177.2031
393.1067	-11.39936	14.75971	-1.297783	120.9434	174.603	171.6146	178.6721
393.4447	-12.42704	24.72738	2.728925	128.4623	169.6146	183.1421	180.0309
393.7827	-8.85122	14.26347	12.12441	145.1439	168.0451	189.3319	183.9964
394.1207	-21.49429	5.65534	11.73635	142.7924	169.891	179.806	192.6673
394.4586	-4.078257	3.583649	-0.1967012	139.0466	172.4976	176.793	188.1323
394.7966	2.616822	-0.7038552	-13.9483	132.749	165.9055	181.3296	187.637
395.1346	13.24414	-2.149094	-8.928329	140.5338	160.3958	183.4575	203.053
395.4725	0.8882513	-3.332313	1.351946	149.8025	157.8663	185.2653	209.313
395.8105	-7.178283	-1.381165	2.34558	151.0619	157.6765	187.9905	193.3301
396.1484	-16.49717	-4.357647	2.419605	145.7774	165.5968	187.8382	184.7468
396.4863	-10.41353	-1.382512	8.990723	147.4523	160.2849	182.9553	191.8913
396.8242	0.4895829	-0.5536256	2.594146	146.0617	158.4294	198.0728	188.6352
397.1621	8.400484	11.12116	-6.015149	149.8538	168.9282	201.8372	194.219
397.5	5.114697	23.55698	-2.525191	155.5918	178.3311	203.8685	201.7667
397.8379	10.58116	20.40109	13.51868	154.4258	176.4074	202.3045	203.8498
398.1757	6.240613	3.347294	20.43077	155.0497	179.0418	213.9392	188.0499
398.5136	5.247096	-5.367832	13.86548	160.8654	191.7555	209.8277	191.2656
398.8514	-2.163238	-2.195765	7.327704	169.3669	191.9616	220.6111	205.5517
399.1893	-3.008183	4.210785	6.951219	164.0319	206.1563	220.5859	221.8359
399.5271	-1.894292	6.34879	2.367373	170.999	226.38	229.0428	228.8965
399.8649	-3.9615	-2.363756	0.2940344	175.069	231.183	231.4224	228.9397
400.2028	-7.311107	0.2922795	-3.003	171.6756	218.3963	246.5855	225.1836
400.5406	-18.32901	-2.013691	1.603339	170.0593	229.1079	246.2052	235.1493
400.8784	-1.067742	16.10816	-2.26688	186.9675	250.5243	251.6029	258.0198
401.2161	11.70599	12.15488	-8.551887	208.7149	254.756	255.8792	276.6483
401.5539	6.438558	6.886776	-6.999417	207.3541	255.7258	279.1789	293.2688
401.8917	-0.09582359	-5.33351	9.032334	213.7096	265.2872	304.9019	293.5446
402.2294	6.488037	9.495366	16.7213	221.6072	266.5326	316.5053	298.4131
402.5672	15.15429	27.65379	6.522692	214.5327	280.9024	304.1304	307.6933
402.9049	4.029371	23.02677	-1.509118	198.9008	298.6942	300.1495	332.6299
403.2426	-3.307631	13.53125	5.179695	211.5018	307.3618	322.9566	347.9944
403.5804	2.649507	12.16425	9.556348	225.3078	293.2451	340.797	352.6334
403.9181	9.081535	11.58516	9.195891	230.8246	296.5259	334.5358	360.3021
404.2558	1.889346	2.878574	2.732607	214.5095	293.3534	331.6768	369.9089
404.5934	-7.988905	-3.537299	11.49192	226.219	301.5732	331.2722	368.7007
404.9311	5.84055	-3.913669	15.59877	235.5326	318.7513	343.5319	354.6202
405.2688	6.04158	5.622818	2.028799	242.7608	343.838	338.8724	364.5529
405.6064	-1.151161	12.70655	-6.098496	241.1162	334.6331	350.6308	375.4466
405.9441	-2.336661	11.46605	-0.1469111	249.4403	331.1577	350.063	381.1003
406.2817	11.66914	-9.637692	3.983104	247.7757	330.9513	350.8841	383.1173
406.6194	6.000932	-12.15824	3.420264	244.2368	342.7321	349.585	392.5347
406.957	-7.490319	-18.36036	11.68202	243.3775	334.9272	353.0939	389.4684
407.2946	-10.29363	-5.032594	18.61917	250.0139	347.2767	357.2849	394.2087
407.6322	-14.95629	23.53915	-7.622591	223.522	351.4209	341.9891	404.2126
407.9698	-14.65043	38.68902	-17.22128	211.1429	361.419	353.5749	416.3793
408.3074	-2.974758	22.32749	-10.19451	208.6995	363.3372	373.5501	416.8477
408.645	5.263366	4.070431	8.884725	242.3658	386.4344	399.91	427.1808
408.9825	-2.98797	-0.2543789	1.466455	256.3776	392.9344	401.3115	434.2532
409.3201	-15.12968	13.4062	8.818815	255.0952	399.5095	399.8605	455.2287
409.6576	-10.90261	18.39994	9.777977	260.9112	401.9024	410.5956	474.3347
409.9951	-11.7534	13.28381	9.185925	276.3494	413.2678	423.8601	482.1224
410.3326	-11.89816	-6.702831	-2.098421	297.4845	412.7622	422.027	476.6101
410.6702	-12.74324	2.433639	9.416613	300.3595	415.718	435.8719	479.568
411.0077	-11.25841	3.68597	20.79751	303.0558	424.5637	473.4247	503.1566
411.3452	4.880177	1.099061	32.3404	307.5105	441.9391	506.9601	526.9171
411.6826	10.82157	-10.13815	14.89999	321.8494	460.1979	525.7437	532.1084
412.0201	15.17419	-2.059611	-0.5883468	328.5944	470.3912	532.4599	537.2984
412.3576	5.193555	1.001118	-5.02919	316.6122	475.5509	543.7303	552.1242
412.695	1.663176	4.310408	6.862129	321.5897	489.8522	557.4734	589.3625
413.0325	-3.71353	10.24969	8.600801	325.676	506.0785	607.8472	604.0508
413.3699	-1.89381	8.468281	16.95414	333.3591	505.5645	630.8599	619.1181
413.7074	0.07852769	6.224557	9.181832	340.8513	511.7588	622.9871	626.9609
414.0448	-1.832601	1.707451	7.29846	372.0768	520.3903	627.958	635.9486
414.3822	-4.927042	7.579526	1.822274	397.9442	530.7211	667.6026	661.556
414.7196	-0.5362679	2.102531	13.55487	407.0295	545.5823	696.4584	683.9214
415.0569	13.2245	8.298437	14.29738	410.2127	569.4279	718.6816	703.4307
415.3943	16.23064	2.615307	16.73859	419.1539	584.5365	757.41	714.3686
415.7317	4.197168	5.575283	14.20049	437.8037	585.5366	797.8433	755.6955
416.0691	7.32824	9.874413	16.10629	455.9644	589.7169	796.1147	767.2455
416.4064	10.15619	26.8562	9.937724	454.8241	591.0541	788.746	766.4526
416.7437	8.153721	27.41279	19.85569	463.3911	588.6232	796.061	762.5083
417.0811	0.4982153	13.23594	19.19678	467.3534	604.4017	833.6119	784.5325
417.4184	14.18344	6.583031	20.96271	474.1967	627.3558	852.4783	800.9006
417.7557	12.48004	1.243156	12.99721	461.1541	629.5337	865.3066	818.6218
418.093	3.429796	7.966052	15.67778	460.9109	610.2839	859.0775	813.482
418.4303	-9.686568	8.706959	7.595559	466.4963	612.9175	845.6685	806.8229
418.7676	-9.419879	11.29016	7.394221	479.6843	623.5712	851.8622	803.3842
419.1048	-4.399993	-2.220027	14.58348	501.1326	626.5589	862.8127	827.5643
419.4421	6.00023	-11.37504	22.96525	497.0939	619.7878	861.4355	808.056
419.7794	1.316819	-12.78238	22.24585	482.0844	616.2473	843.9858	801.6355
420.1166	-4.613695	-8.438578	14.56711	464.9919	618.5698	858.5439	799.293
420.4538	5.059794	-3.217961	12.02503	483.4477	627.6561	874.69	819.8999
420.791	13.57174	4.360283	22.30263	492.8134	636.8239	875.8994	797.7519
421.1282	7.840532	10.07663	28.24132	498.6714	643.0334	868.5612	791.7479
421.4655	1.182507	9.503428	26.02865	499.5334	629.6276	874.0399	790.389
421.8026	3.356787	5.454508	18.02556	504.6837	614.0867	884.985	807.5206
422.1398	4.240261	1.935361	13.98402	503.5452	602.3713	895.2633	800.4952
422.477	-2.994398	7.378815	13.42244	499.7438	611.1044	895.4861	801.3268
422.8141	-8.287088	16.60577	19.88002	517.66	615.6618	889.1594	795.4154
423.1513	-5.617572	10.17412	17.20362	533.8083	616.3174	899.5956	805.0411
423.4884	6.706614	10.00721	16.70974	528.9499	607.3769	899.1555	799.1616
423.8256	10.12193	3.495497	18.16366	512.327	613.2227	880.3065	809.2376
424.1627	10.39842	9.542136	22.2424	514.4767	629.4913	879.9872	808.1896
424.4998	8.254519	-1.825961	18.82196	538.8576	640.2142	915.8288	812.9493
424.8369	-2.766613	10.73496	23.72851	528.0466	634.9656	920.8574	833.8701
425.174	-8.071884	2.377576	23.73668	526.368	622.8893	909.2456	873.3738
425.5111	-1.028024	13.24813	20.15317	523.4243	629.8942	914.361	883.4919
425.8481	8.178253	15.69764	6.002728	533.3502	644.5126	936.7129	869.0074
426.1852	6.321219	21.03225	6.314403	535.993	655.0602	936.4731	873.8619
426.5223	1.683701	14.58278	5.978416	547.9037	651.4102	939.8763	901.386
426.8593	4.298175	5.182141	24.11083	544.8572	658.4909	942.4807	916.2194
427.1964	-0.8777891	4.516366	18.3952	531.9028	656.7706	967.9479	915.3036
427.5334	7.311557	1.388963	21.54874	543.3622	663.8314	982.5157	921.2579
427.8704	10.31096	5.622647	17.87177	564.8093	662.459	995.1169	923.4941
428.2074	15.07779	6.327853	26.13495	565.6295	662.9335	987.856	937.3713
428.5444	2.614357	11.53407	18.84019	558.5793	676.1722	976.8452	968.2886
428.8814	-2.998716	7.238588	23.5552	569.8204	696.7478	982.3142	991.2238
429.2184	-1.702094	0.7989259	26.95696	598.1273	713.7046	1005.243	1005.857
429.5553	8.781541	7.429534	19.42004	595.9468	725.5195	1017.528	1015.493
429.8922	10.17377	11.27834	15.55709	597.6364	725.4941	1024.31	1038.486
430.2292	-0.8776857	16.73991	25.36308	593.3141	720.5756	1020.522	1033.501
430.5661	-11.78647	20.52496	32.98787	605.0824	731.6985	1034.366	1045.427
430.903	3.612333	12.92686	25.46732	608.0522	731.7029	1032.82	1046.082
431.24	10.76795	8.197129	17.70512	605.8824	736.0242	1030.568	1056.945
431.5769	5.371709	17.00014	22.96612	577.3843	746.007	1012.072	1049.636
431.9138	-1.536395	29.09513	42.3403	580.174	778.5515	1031.215	1057.703
432.2506	18.76269	42.87039	59.07041	603.6542	775.2173	1051.139	1060.776
432.5875	42.05354	57.29966	72.63657	617.8627	786.089	1084.377	1079.88
432.9244	39.00709	56.80916	72.9051	614.4657	782.4343	1091.528	1094.456
433.2612	30.83857	28.02864	65.48979	618.6118	798.2776	1095.756	1102.366
433.5981	20.35209	21.54717	47.59253	599.4563	798.1494	1075.698	1072.539
433.9349	18.29604	18.62043	31.4059	568.5682	801.0793	1069.017	1055.44
434.2718	11.30079	16.19942	23.1151	556.197	785.1711	1044.013	1069.791
434.6086	8.516485	14.43768	25.3385	571.9761	787.2556	1042.323	1084.537
434.9454	-0.2841604	19.16236	24.55438	574.2044	784.05	1034.197	1061.712
435.2822	-24.33524	8.949516	8.095899	548.4833	775.1323	1023.175	1031.088
435.6189	-44.73009	-8.235684	-8.979469	531.1735	761.9995	1000.404	1020.824
435.9557	-53.30565	-1.254109	-11.7678	512.6172	755.9916	991.3992	1026.558
436.2925	-39.62804	7.35464	-11.93534	518.9344	761.6224	988.8609	1029.536
436.6292	-26.98896	10.82682	-5.383883	508.9902	770.5565	987.358	1046.087
436.966	-10.84806	-1.745513	9.001359	528.5467	774.3637	1020.179	1052.016
437.3027	-0.6156699	-10.837	21.71432	550.7315	774.6757	1045.456	1065.836
437.6394	2.571989	-6.270875	27.08579	580.9561	773.0801	1056.776	1065.787
437.9761	-15.26308	3.111683	22.55746	574.1048	789.6149	1042.846	1084.731
438.3129	-10.82244	6.546071	19.37382	586.3178	786.6652	1059.533	1084.323
438.6495	-3.051849	3.058009	22.52796	595.8113	805.3992	1064.944	1082.854
438.9862	7.482573	-1.095092	32.87186	596.6433	808.8953	1078.747	1080.593
439.3229	-1.857189	-6.887804	30.56717	600.3926	823.5589	1093.161	1091.601
439.6596	8.901988	-8.775563	28.27151	613.7188	813.0027	1110.411	1103.257
439.9962	-1.478856	3.644375	23.11593	589.3711	823.8121	1096.165	1092.884
440.3329	-5.675479	14.31495	30.48013	574.1983	848.1336	1104.388	1081.03
440.6695	-13.71195	21.63534	29.99125	586.563	868.6292	1113.955	1095.677
441.0061	-5.99232	20.9772	24.98952	609.1021	865.7344	1121.178	1119.54
441.3427	-8.57762	16.93827	18.04578	619.2037	867.902	1133.041	1132.929
441.6794	4.562906	14.73983	33.74421	626.0347	883.0474	1177.269	1135.714
442.0159	13.05472	4.63037	48.14124	632.5309	890.0199	1201.994	1145.327
442.3525	12.73278	22.50957	47.5183	630.1252	882.736	1191.071	1135.04
442.6891	4.892403	28.67048	43.2145	634.1592	875.0062	1198.557	1150.813
443.0257	-8.04246	27.67395	42.17423	634.4475	881.3667	1213.22	1146.119
443.3622	3.048378	4.386633	49.96305	649.7107	899.3362	1233.299	1150.376
443.6988	5.250446	9.662935	52.8397	654.4965	915.2142	1232.563	1142.923
444.0353	2.941818	0.8958073	55.29783	665.3714	919.3099	1251.858	1153.728
444.3718	-17.31932	10.98747	43.86629	667.6273	926.1149	1236.582	1138.443
444.7083	-16.49036	19.00366	39.17188	675.2295	930.817	1246.918	1152.165
445.0448	-4.246818	24.54262	38.59811	690.8772	941.3692	1264.768	1161.026
445.3813	7.148061	4.974499	49.53606	706.5234	942.5491	1295.494	1172.773
445.7178	12.26937	1.071921	51.39214	723.5238	938.6614	1302.238	1168.593
446.0543	-9.84219	11.24119	41.7575	719.1578	945.3175	1297.578	1181.897
446.3907	-6.556705	20.94328	38.99434	725.6992	936.7631	1281.951	1171.779
446.7272	-6.064147	28.69981	53.06365	726.9263	930.5153	1290.224	1159.561
447.0636	-4.676038	18.03589	63.87374	739.4028	934.5736	1310.801	1145.027
447.4001	-13.66233	10.39714	59.99937	741.335	958.4791	1316.671	1168.867
447.7365	1.00198	1.80716	53.53479	734.6518	935.7175	1287.326	1187.864
448.0729	13.74574	4.946008	52.69155	730.5785	922.0215	1277.227	1180.614
448.4093	10.24506	4.872006	45.66488	733.8659	934.5431	1270.107	1151.877
448.7457	8.723423	2.535629	39.98346	739.8413	951.3885	1264.608	1130.001
449.0821	1.893968	-2.40024	39.73747	755.8813	941.2541	1255.37	1116.422
449.4184	-4.443581	0.8633288	32.29767	760.285	919.2919	1240.839	1110.803
449.7548	-5.011627	5.311348	39.76786	757.6704	896.4034	1241.166	1111.722
450.0912	0.7893652	-0.03130195	47.52825	744.1966	888.6631	1231.33	1111.993
450.4275	7.001601	1.85362	49.27766	735.3541	902.8449	1229.535	1113.402
450.7638	5.87259	14.4317	39.86522	727.0488	912.8339	1219.262	1110.867
451.1001	14.32897	19.07475	44.45378	716.7351	899.447	1229.047	1093.777
451.4364	10.86606	4.708398	51.94304	731.9995	875.662	1239.436	1098.017
451.7727	16.48991	-0.6245583	49.60216	722.2371	865.7973	1219.579	1121.732
452.109	13.7467	7.453975	36.64329	712.4988	856.769	1180.331	1139.02
452.4453	9.27933	15.4448	31.94055	700.5883	856.9263	1159.455	1126.119
452.7816	-2.771487	9.564231	39.4868	718.3238	862.8698	1177.541	1120.314
453.1178	-9.087228	0.6872077	56.84109	729.3359	866.8146	1194.346	1122.696
453.4541	-13.1954	8.114326	60.33442	731.9186	861.2661	1165.81	1132.365
453.7903	-16.05511	16.34838	51.41885	729.3424	854.0245	1153.509	1153.234
454.1266	-12.64242	17.48047	43.55331	719.5291	860.5326	1160.074	1168.31
454.4628	-2.947359	10.10731	38.49246	726.0768	878.5048	1185.325	1159.101
454.799	6.602684	1.338591	41.71735	740.4127	888.5085	1198.42	1151.114
455.1352	6.653625	3.120246	47.84216	755.7512	882.1645	1219.859	1160.703
455.4714	10.5179	2.239492	50.01543	758.9728	868.0244	1230.864	1182.476
455.8076	9.92321	15.4825	44.51296	737.5297	874.4019	1174.391	1188.58
456.1437	2.209267	5.089152	48.60396	740.1193	880.7099	1168.416	1208.097
456.4799	-1.795523	4.55137	54.00832	754.9908	905.8646	1195.052	1217.794
456.816	4.144424	-8.542839	58.99604	798.3087	913.9802	1235.073	1218.156
457.1522	6.370739	5.960933	52.08895	783.9493	901.1966	1213.485	1236.056
457.4883	3.564928	10.00151	49.42646	771.1796	895.1773	1242.507	1262.612
457.8244	-1.731513	18.22731	46.61827	761.774	900.2332	1302.36	1272.259
458.1605	-4.419922	12.63425	61.03835	781.2859	911.4598	1309.746	1274.42
458.4966	6.288511	15.23909	58.28731	771.5468	904.3058	1283.346	1279.141
458.8327	17.11625	7.747522	54.10516	775.0246	926.7007	1284.757	1281.807
459.1688	16.30749	14.33962	57.19934	795.354	936.4916	1327.978	1276.729
459.5048	10.54382	19.62177	60.76831	818.7288	940.6777	1365.558	1297.009
459.8409	4.987191	17.68446	53.19896	816.9006	933.3734	1386.366	1293.368
460.1769	-3.490636	7.425683	51.66669	822.2695	944.9917	1370.841	1288.379
460.5129	-1.28689	14.41116	58.89528	825.7684	958.6141	1351.886	1294.98
460.849	11.6846	20.21537	59.12065	840.2833	981.1268	1345.52	1306.553
461.185	13.62148	14.97593	50.55646	839.8764	981.7437	1336.845	1291.754
461.521	6.39651	10.52736	50.66577	855.1314	978.8388	1324.28	1273.827
461.857	5.227673	3.608965	63.69051	840.7045	964.9742	1337.535	1264.19
462.193	5.759272	3.849694	70.19135	834.3414	984.4305	1341.143	1283.273
462.5289	-3.054025	4.753899	69.04622	826.7263	999.1469	1320.288	1268.479
462.8649	-10.333	5.439983	73.93027	834.1871	1003.577	1308.92	1266.113
463.2008	-2.033734	6.22219	78.55935	827.7649	983.0026	1292.288	1233.328
463.5368	5.648607	-1.01167	78.16152	824.9825	985.142	1286.776	1230.033
463.8727	8.12798	0.2035487	65.78262	812.5707	997.2897	1276.847	1219.241
464.2086	-9.848718	-6.456641	55.43386	804.3988	997.2673	1240.652	1236.992
464.5446	-15.15119	3.430893	54.57778	795.709	990.7512	1204.467	1223.06
464.8805	-6.717944	2.708659	54.75774	804.1052	979.9373	1198.84	1209.222
465.2163	4.211518	10.93513	63.49746	810.3914	983.311	1188.908	1203.661
465.5522	-2.495849	0.692211	67.23685	813.478	979.8286	1146.128	1221.608
465.8881	2.913377	6.200126	67.84724	799.7989	972.9965	1130.915	1219.347
466.2239	2.628878	5.885194	58.66152	800.5996	956.7974	1123.387	1224.017
466.5598	-7.275779	8.804211	63.12495	795.0793	965.7016	1108.956	1218.531
466.8956	-19.15215	-5.113712	64.57243	778.038	964.0866	1116.305	1207.246
467.2314	-10.78372	-5.724212	60.01865	757.2575	957.6135	1123.234	1211.354
467.5673	1.372524	-1.323282	63.86331	751.9847	950.5367	1106.973	1243.963
467.9031	4.651569	13.62723	66.55278	737.1555	947.5197	1064.625	1240.47
468.2389	1.08459	10.88329	62.41295	722.2514	936.1538	1074.03	1224.075
468.5746	1.758738	10.22286	59.53267	710.2151	926.4691	1074.732	1234.157
468.9104	-3.714228	16.63459	59.11105	696.7279	943.866	1065.62	1258.215
469.2462	-3.540788	22.4389	58.73183	692.3289	937.5544	1062.08	1257.486
469.582	-10.92163	14.72216	55.36712	688.416	932.2375	1061.92	1280.495
469.9177	4.968633	5.516088	61.45885	704.1206	925.6581	1052.624	1290.634
470.2534	-3.881725	3.805788	61.73216	717.8234	955.2075	1055.95	1282.921
470.5891	2.124136	11.54938	60.19736	717.0699	937.4402	1082.319	1259.382
470.9249	1.892912	13.05438	57.61688	702.6459	919.2261	1079.216	1260
471.2606	3.390733	13.17336	63.83143	700.1391	904.3464	1077.047	1267.393
471.5963	-10.57315	17.11512	68.2635	688.7305	923.0805	1101.395	1293.188
471.9319	-12.15347	21.77034	72.97343	671.397	939.1967	1118.985	1292.087
472.2676	-5.505221	11.63949	74.04362	664.6559	968.0649	1122.683	1290.724
472.6033	-0.2386525	9.007853	74.27272	678.1456	962.6123	1137	1303.393
472.9389	7.166408	10.6926	71.52193	688.4533	962.5341	1143.358	1339.706
473.2746	14.48271	8.147594	74.15556	694.8407	944.1823	1125.181	1354.578
473.6102	10.80212	-1.453453	70.86622	696.0782	948.4465	1124.836	1361.916
473.9458	5.995088	6.157257	66.49886	690.657	957.5108	1133.926	1355.958
474.2814	-1.255421	19.91646	56.45083	682.9728	975.4821	1136.414	1366.575
474.617	1.028348	17.05027	64.40858	691.0641	981.0927	1145.817	1386.344
474.9526	-4.508117	8.032053	67.18466	694.6381	988.941	1175.761	1421.581
475.2882	3.83346	0.5532064	76.10686	692.9083	993.5762	1166.897	1441.968
475.6237	-0.9479301	4.492371	70.2205	689.0754	979.4464	1131.157	1446.548
475.9593	-4.298806	13.94212	76.51462	699.9589	982.5641	1114.497	1454.221
476.2949	-8.842352	15.83739	77.87898	692.6281	1003.413	1111.247	1479.733
476.6304	14.98737	0.6969853	83.74102	693.7249	1018.888	1133.261	1496.338
476.9659	17.78068	-11.04732	82.30541	709.04	1037.967	1142.102	1513.326
477.3014	2.63805	-2.142675	89.47231	704.6603	1044.721	1145.968	1537.391
477.6369	-16.46242	8.970451	80.54978	712.1358	1051.968	1126.13	1573.726
477.9724	-21.0344	13.81745	76.81211	717.0488	1046.846	1109.869	1581.657
478.3079	-9.68928	11.44436	79.33782	739.1611	1060.278	1109.429	1599.986
478.6434	-4.753178	14.68432	96.00454	750.3673	1063.591	1104.898	1617.351
478.9789	5.675643	17.58641	93.8297	777.6174	1070.398	1106.744	1624.241
479.3143	9.242025	16.56252	99.90331	779.4454	1071.4	1083.385	1622.184
479.6497	12.29636	5.406461	97.25045	766.7779	1075.359	1095.23	1623.839
479.9852	2.461433	11.19851	101.2682	756.4193	1068.855	1077.182	1638.873
480.3206	-3.820335	14.07597	95.79414	775.9303	1073.975	1068.262	1661.006
480.656	-4.347072	22.05402	100.0845	787.4521	1073.421	1048.49	1653.984
480.9914	4.67886	24.41698	99.91713	786.6298	1081.898	1070.13	1635.285
481.3268	18.51843	23.97915	109.7449	788.2797	1070.855	1060.578	1618.269
481.6622	18.316	15.92424	112.6991	789.4855	1067.221	1056.041	1641.502
481.9975	19.76235	15.04824	115.3569	779.1897	1043.683	1051.366	1638.704
482.3329	12.88921	18.88004	109.0669	782.8398	1032.555	1098.858	1619.446
482.6682	3.404219	18.8803	110.9443	801.2679	1023.462	1102.012	1595.485
483.0036	-2.979472	15.42196	106.8856	784.5876	1020.417	1095.972	1598.591
483.3389	8.771805	17.87124	108.1681	786.6796	1009.714	1081.598	1591.781
483.6742	18.24353	22.69221	110.5881	791.0837	993.6752	1096.92	1573.427
484.0095	15.09412	17.47835	120.5505	788.2173	976.5293	1096.548	1551.309
484.3448	6.213035	7.968058	119.6267	757.7352	978.2504	1122.641	1523.978
484.6801	-4.243051	9.338433	115.7216	748.3369	970.8856	1126.32	1487.914
485.0154	-1.759596	13.05439	111.2615	745.0102	946.9989	1122.671	1478
485.3506	-4.894608	21.07188	104.1165	742.9306	912.3079	1095.711	1455.111
485.6859	-4.902159	19.41837	99.80105	745.3809	899.8937	1109.729	1420.398
486.0211	-4.388229	13.9811	106.2298	754.9952	892.705	1103.049	1391.296
486.3564	1.736665	2.84887	103.3016	764.6383	884.4378	1120.95	1408.18
486.6916	-15.88317	18.37334	94.60391	743.0313	880.8077	1094.667	1415.195
487.0268	-31.2149	23.02943	93.98801	738.0128	885.3014	1086.703	1412.545
487.362	-13.25101	29.17313	99.19512	745.2076	886.4356	1090.459	1387.056
487.6972	8.899199	21.6736	92.65237	743.4856	875.1086	1149.18	1362.633
488.0323	6.86626	17.16931	90.17149	736.985	860.8669	1150.387	1334.77
488.3675	-1.36165	2.575256	97.21491	759.5929	861.8801	1148.505	1318.909
488.7027	2.501032	3.911859	105.6237	778.6188	859.7689	1124.373	1317.855
489.0378	-7.276601	8.702829	97.39268	775.7994	857.7818	1140.961	1338.567
489.373	-11.28526	10.52554	95.23981	788.5825	832.6182	1146.75	1341.259
489.7081	-14.09709	3.326682	94.92615	783.3062	822.1462	1158.542	1338.098
490.0432	-14.42563	8.72618	110.3044	769.7029	813.8997	1132.45	1330.163
490.3783	-12.07227	8.036001	113.9904	783.7109	819.6622	1127.751	1345.924
490.7134	-3.254099	15.38034	108.1496	807.1109	813.7422	1113.493	1332.506
491.0485	-8.458898	16.1885	102.524	803.165	821.3467	1112.016	1331.851
491.3835	-12.4741	24.93521	109.9669	782.1132	825.4997	1116.782	1319.937
491.7186	-2.937762	4.06044	106.6819	789.1049	835.1818	1149.835	1335.115
492.0536	1.257685	-3.807319	113.4305	787.8748	849.9586	1144.407	1345.117
492.3887	-3.549401	-5.224613	116.9161	815.5059	854.7371	1134.824	1368.2
492.7237	-10.94282	8.180383	123.7961	835.7093	879.9064	1136.597	1348.856
493.0587	-8.229455	10.11118	114.5296	849.5576	899.9718	1167.007	1344.116
493.3937	-0.06292819	4.322188	120.3014	850.1058	905.0136	1163.996	1357.876
493.7288	-7.166102	-3.114652	121.676	862.6056	899.7348	1151.482	1371.382
494.0637	-9.128293	4.476377	128.7121	878.2883	914.5562	1148.928	1348.016
494.3987	-9.492113	14.00133	127.8097	889.2408	918.1091	1156.436	1360.736
494.7337	-0.4693368	16.19385	113.4659	908.4377	899.332	1143.93	1376.698
495.0686	-7.994808	15.70177	102.9713	916.7302	897.7952	1117.017	1386.298
495.4036	-0.4274312	15.86112	114.52	926.0541	927.2012	1115.62	1365.491
495.7385	3.769713	5.488157	136.1201	921.745	965.4101	1138.959	1401.094
496.0734	3.426325	5.098453	138.925	924.389	978.8643	1189.241	1395.689
496.4083	3.309787	13.17678	127.8425	944.5038	994.3041	1190.384	1400.298
496.7432	11.01397	7.981699	121.12	969.304	1015.445	1177.669	1380.541
497.0781	-0.8076913	7.35364	119.0364	967.6188	1023.751	1154.68	1385.169
497.413	-10.52147	3.181046	126.4036	953.3921	1014.193	1131.203	1379.744
497.7479	-3.135506	9.996258	125.6007	968.2122	1019.591	1136.702	1382.13
498.0827	4.984348	-0.2387179	133.0362	986.998	1026.723	1148.711	1365.531
498.4176	-0.1242111	4.837127	122.2306	993.195	1037.903	1179.933	1366.488
498.7524	-4.234016	4.60347	121.615	994.2167	1067.547	1174.495	1364.544
499.0872	8.135202	1.910029	120.3049	998.6704	1080.929	1177.398	1357.72
499.4221	15.02163	-1.88201	141.3371	1015.314	1074.026	1176.864	1321.765
499.7569	11.09304	-5.014187	143.8513	1046.948	1087.393	1208.058	1326.232
500.0916	-5.977306	13.57612	138.7951	1052.146	1106.653	1206.977	1303.48
500.4265	-13.98178	19.33922	143.948	1026.433	1120.569	1188.34	1302.588
500.7612	-3.601865	24.29505	154.4942	1011.362	1119.115	1161.452	1288.74
501.096	11.42964	2.72246	154.7561	1045.426	1132.109	1164.532	1283.655
501.4307	8.809328	14.58763	137.8724	1051.364	1117.269	1186.202	1257.27
501.7655	0.1945185	17.2375	138.9478	1052.482	1136.182	1214.623	1258.906
502.1002	-9.144301	16.52754	138.2342	1054.666	1136.631	1210.434	1263.193
502.4349	-13.89271	-2.993421	152.0984	1074.214	1143.139	1191.497	1237.52
502.7696	-21.04832	0.8468772	157.5658	1058.538	1147.143	1199.3	1211.315
503.1043	-11.34968	7.743942	160.0986	1052.506	1173.286	1188.968	1226.595
503.439	-6.346742	9.779474	142.1112	1037.871	1161.845	1168.128	1239.666
503.7737	-5.422085	12.14879	122.7001	1025.563	1138.661	1151.074	1215.783
504.1083	1.265207	16.29	122.5493	1039.722	1115.144	1190.277	1165.794
504.443	-1.308258	15.87016	135.9884	1059.788	1119.916	1229.069	1143.743
504.7776	0.4406677	0.4734515	147.5178	1082.126	1119.637	1219.731	1135.253
505.1123	7.24	-4.242071	145.3872	1063.088	1130.635	1197.287	1146.988
505.4469	9.66992	1.511373	141.4289	1049.907	1132.959	1188.848	1141.667
505.7815	0.7439225	12.35095	137.97	1015.123	1149.447	1212.455	1128.963
506.1161	3.364711	18.6734	136.371	1006.167	1126.265	1203.664	1116.577
506.4507	11.97612	22.09896	136.0679	996.562	1105.274	1190.196	1128.806
506.7853	8.732368	17.47378	131.321	1004.897	1092.307	1158.305	1126.027
507.1198	0.839934	15.52816	122.7434	1023.076	1097.391	1157.784	1116.449
507.4544	-0.9489586	22.44112	131.7508	1015.375	1103.644	1173.531	1106.075
507.7889	-3.991023	21.73094	145.9772	1031.568	1109.214	1193.106	1119.52
508.1235	2.949369	19.8634	153.8773	1030.654	1110.875	1183.321	1131.315
508.458	0.2836354	3.813828	140.4323	1023.309	1110.461	1193.463	1113.832
508.7925	-2.968767	5.318773	125.7203	994.0897	1103.197	1189.574	1093.648
509.127	-10.38607	15.32036	133.8858	1011.398	1086.578	1200.916	1089.915
509.4615	-3.704651	32.79027	139.0246	1011.953	1053.904	1214.686	1097.108
509.796	-5.957922	27.09735	144.7936	1005.128	1052.121	1233.961	1097.719
510.1305	-2.834156	12.46626	137.7694	1013.162	1053.024	1227.024	1110.124
510.4649	2.192685	7.111917	149.1469	1042.967	1069.471	1232.55	1120.728
510.7993	0.8758803	13.71233	145.9548	1031.22	1062.511	1240.033	1082.977
511.1338	-9.159603	24.45491	144.3736	1016.52	1053.066	1191.181	1089.31
511.4682	-15.82039	28.91714	129.856	1021.414	1052.331	1168.456	1116.676
511.8026	-11.74008	28.54526	129.8583	1033.194	1049.812	1181.216	1151.681
512.137	-0.3767103	12.16795	138.2932	1046.854	1046.561	1200.915	1115.448
512.4714	2.863706	4.818163	153.1427	1051.634	1044.683	1226.981	1092.282
512.8058	4.501818	5.459691	152.654	1056.807	1049.061	1247.763	1082.717
513.1402	-1.554217	14.61941	158.7614	1063.769	1054.716	1257.521	1109.384
513.4745	10.88632	0.1421594	166.8516	1078.69	1037.353	1237.758	1106.259
513.8089	5.257911	2.315279	169.0625	1058.8	1029.598	1220.136	1111.589
514.1432	11.53663	-5.839437	168.0281	1049.593	1024.327	1196.395	1116.171
514.4775	15.04772	-2.103857	170.3398	1077.403	1025.858	1198.637	1121.226
514.8119	14.8205	-3.504889	178.8297	1090.413	1008.803	1182.805	1104.723
515.1462	-3.250284	3.511628	171.5181	1079.75	1012.714	1138.598	1098.741
515.4805	-9.048529	13.27754	171.2837	1059.252	1024.438	1144.863	1091.6
515.8148	-4.890125	18.57445	176.1897	1050.528	1040.978	1164.18	1099.547
516.149	0.5152347	19.50378	193.1502	1039.055	1034.848	1173.43	1103.76
516.4833	5.578581	3.735619	202.0604	1079.069	1036.189	1171.935	1098.092
516.8176	6.076901	5.148519	197.6088	1096.171	1011.508	1179.799	1093.316
517.1518	-1.446835	12.91493	186.5773	1109.378	1022.825	1165.67	1109.358
517.486	-9.033939	10.86624	181.1517	1109.249	1020.669	1146.225	1102.307
517.8203	-2.628614	3.968939	188.8302	1141.312	1037.311	1140.225	1088.083
518.1545	7.809819	5.753829	201.9033	1150.911	1030.721	1126.332	1065.978
518.4886	9.588899	21.92509	205.5549	1145.473	1038.998	1164.156	1073.335
518.8228	1.783422	23.13872	211.7893	1133.286	1020.031	1182.281	1062.4
519.157	-3.54141	23.87865	213.6546	1118.558	1015.964	1206.445	1069.079
519.4912	0.2677307	12.82744	215.5231	1117.006	1012.947	1177.16	1059.335
519.8253	7.081692	4.014101	210.1974	1121.37	1029.953	1147.225	1073.405
520.1595	8.161611	-2.573085	205.7466	1111.621	1029.656	1112.094	1071.124
520.4936	11.28765	6.175314	206.6127	1098.635	998.9637	1121.631	1082.866
520.8278	3.999371	16.66665	205.4367	1087.046	963.6911	1156.597	1088.43
521.1619	-6.366537	15.37262	213.3293	1122.892	967.048	1160.407	1079.461
521.4959	-9.140222	10.79373	216.843	1129.717	980.0538	1114.078	1062.099
521.83	-1.937536	7.585123	223.6612	1128.091	967.1282	1097.357	1036.537
522.1641	4.189395	8.700042	221.7605	1110.232	956.8407	1141.865	1035.75
522.4982	2.086222	0.6425145	218.026	1109.979	962.7072	1175.192	1022.439
522.8322	18.84574	-1.36021	214.5776	1104.097	971.6106	1155.781	1035.14
523.1663	17.28911	3.011482	217.0334	1098.522	974.8727	1171.361	1037.731
523.5003	9.632356	6.26996	217.1022	1091.739	966.9949	1189.883	1039.514
523.8344	-5.606995	5.650043	214.0765	1081.573	962.8926	1184.497	1031.755
524.1683	0.5379617	-3.769513	224.8378	1064.539	958.8979	1157.394	1031.516
524.5023	-0.4842107	-13.1476	228.8414	1073.701	966.1388	1162.288	1029.523
524.8363	3.846633	-11.77362	235.1503	1071.53	956.6011	1162.38	1008.818
525.1703	-3.955019	-4.780102	221.409	1075.569	943.4578	1174.937	1026.99
525.5043	-6.958731	4.643975	227.3427	1059.015	932.7995	1187.206	1040.643
525.8382	-9.427597	7.833905	224.5669	1058.866	942.1024	1236.857	1050.147
526.1722	2.434896	15.75154	232.409	1033.026	938.1527	1261.037	1041.067
526.5061	12.83634	10.35586	233.9199	1035.031	917.5926	1269.449	1061.94
526.84	8.841745	5.725348	240.2733	1043.686	927.7706	1290.099	1066.797
527.174	-1.290046	0.6462138	250.489	1055.83	949.4782	1304.451	1048.056
527.5078	-12.62217	0.2954646	253.5344	1033.168	942.9244	1279.401	1014.522
527.8417	-14.33695	0.8366632	256.0715	1009.397	932.6181	1250.88	1012.323
528.1756	-10.26135	5.865479	251.989	983.685	940.0539	1240.261	1049.376
528.5095	0.4123684	4.136531	255.7178	989.6541	980.8808	1245.381	1081.213
528.8433	11.32196	-4.474833	258.6748	996.8928	971.261	1271.511	1067.299
529.1772	7.385579	1.627046	264.6108	1004.023	958.7053	1315.139	1062.394
529.511	4.126196	18.81031	259.2165	999.5086	944.5133	1316.905	1057.954
529.8448	-3.46879	22.2614	257.7948	1001.502	957.9777	1308.162	1075.656
530.1786	-4.607103	15.83049	257.4018	994.1239	969.7814	1306.135	1079.223
530.5125	-1.08018	2.08605	262.988	1023.476	986.5332	1288.5	1102.891
530.8463	7.059007	-7.632017	253.5049	1037.444	1008.869	1282.049	1081.929
531.18	5.597157	-16.09755	244.7455	1032.97	1020.77	1335.034	1090.367
531.5138	3.232051	-6.708196	257.4574	1007.719	1016.636	1366.916	1115.747
531.8475	2.923161	-1.157281	276.1539	998.3142	1001.654	1352.264	1151.892
532.1813	1.29825	1.491523	272.1335	999.3092	999.2076	1277.207	1159.099
532.515	-5.427227	-7.215477	264.1588	1004.339	1030.741	1276.915	1155.356
532.8488	-4.544156	-2.999892	279.9563	1003.708	1046.666	1270.254	1151.482
533.1824	3.542482	4.260018	300.5779	993.4388	1051.024	1302.707	1153.372
533.5162	11.58723	14.1383	292.9124	987.0963	1067.367	1307.312	1155.688
533.8499	10.79403	7.093416	279.7296	994.4418	1090.908	1309.132	1151.74
534.1835	11.5149	12.21099	282.3426	981.8214	1100.427	1265.364	1161.904
534.5172	8.863256	15.69507	292.822	1006.971	1108.606	1238.275	1181.26
534.8508	11.33013	26.62404	299.901	1004.529	1126.128	1208.448	1174.693
535.1845	9.585689	12.49343	307.6281	1020.892	1136.138	1195.432	1183.884
535.5181	11.57885	10.22869	313.4063	1009.011	1137.408	1175.62	1210.224
535.8517	4.342402	12.99211	317.5692	1031.418	1149.736	1197.782	1244.832
536.1854	-5.818251	22.90981	323.2851	1010.129	1157.796	1183.071	1224.636
536.519	-18.48796	8.86758	335.0058	1023.615	1179.559	1197.212	1221.666
536.8525	-0.1543176	8.52385	332.3174	1039.159	1204.566	1205.756	1228.722
537.1861	10.95754	14.36454	329.5342	1040.794	1235.04	1196.744	1275.455
537.5197	15.40218	21.13319	336.9582	1022.999	1259.931	1152.902	1285.336
537.8533	9.117914	11.30081	339.7756	1028.445	1273.875	1168.678	1287.292
538.1868	21.03323	13.69761	342.6565	1041.365	1268.77	1225.309	1299.869
538.5203	17.95561	18.96502	354.3458	1047.458	1286.351	1242.419	1325.708
538.8538	22.99525	32.2827	368.8467	1066.703	1312.936	1233.384	1313.31
539.1874	30.11544	29.31758	380.9134	1068.904	1362.875	1218.351	1285.882
539.5209	18.4905	38.07297	381.2183	1043.664	1386.619	1172.296	1283.273
539.8544	3.869783	35.72415	388.5034	1019.632	1389.974	1156.938	1286.91
540.1878	16.04573	35.9502	376.5646	1010.565	1358.997	1177.042	1276.173
540.5213	20.19495	30.43212	373.5234	1011.424	1369.158	1201.884	1268.213
540.8547	8.630666	31.7761	375.2285	1019.159	1377.27	1184.484	1258.707
541.1882	-9.57497	30.46524	381.4692	1013.325	1384.693	1200.656	1280.091
541.5216	-5.347033	30.03569	364.6339	997.6508	1402.342	1219.243	1276.689
541.855	-22.4849	25.5108	342.1776	974.5229	1446.195	1190.736	1254.16
542.1885	-35.24789	32.33367	334.276	939.1139	1462.505	1123.01	1227.484
542.5219	-42.09579	32.1756	344.959	936.0339	1463	1159.964	1241.486
542.8552	-28.40033	33.58651	351.0275	959.8083	1465.641	1201.717	1233.759
543.1886	-29.4004	14.84079	358.8544	964.7328	1456.609	1223.294	1224.535
543.522	-31.98505	16.45959	335.1166	915.2463	1434.838	1176.016	1213.86
543.8553	-47.55506	9.926232	318.8976	883.7099	1450.687	1171.581	1196.529
544.1887	-50.84196	12.50743	303.8237	867.0492	1469.661	1143.562	1185.292
544.522	-56.51773	6.392821	317.4268	894.1378	1471.745	1143.255	1205.025
544.8553	-46.04382	0.7524315	321.8145	909.1191	1454.74	1145.144	1214.923
545.1887	-49.74623	-6.163168	332.3608	903.1001	1471.441	1185.837	1209.715
545.5219	-42.77003	-9.952337	343.1423	858.4949	1463.193	1221.655	1201.104
545.8552	-50.80516	-6.840207	336.5252	848.207	1470.483	1199.063	1211.6
546.1885	-62.87883	-8.919543	318.1249	847.8522	1467.55	1156.497	1200.651
546.5218	-67.51925	-14.1849	319.7588	869.5161	1465.107	1184.823	1198.345
546.855	-46.2205	-12.16265	344.8077	896.6419	1450.19	1244.947	1178.196
547.1882	-32.56647	6.939722	373.4462	911.1552	1444.837	1276.187	1174.841
547.5215	-30.94714	20.35248	384.9757	907.3224	1468.41	1234.648	1177.014
547.8547	-37.89445	27.57972	379.775	901.0546	1476.211	1214.613	1180.946
548.1879	-35.79966	15.16894	361.2062	902.6789	1472.789	1223.672	1182.31
548.5211	-27.02387	-0.3704744	368.0017	903.4814	1475.602	1273.567	1198.949
548.8543	-10.91736	-2.151977	384.3214	894.0626	1501.864	1300.234	1208.233
549.1875	-5.184587	6.730411	396.8682	894.6536	1498.455	1312.977	1198.795
549.5206	-6.385908	12.38202	396.3695	895.5887	1480.991	1267.682	1202.72
549.8538	0.4761845	8.155222	385.0045	917.89	1487.219	1242.138	1216.895
550.187	-10.49957	13.44049	372.4716	924.2194	1485.339	1241.838	1217.667
550.5201	-9.582877	7.762204	377.0783	938.7044	1492.832	1283.213	1201.522
550.8531	-7.683138	14.84583	378.9938	928.0746	1499.864	1249.107	1182.55
551.1863	1.960518	9.662007	373.8737	914.0822	1520.504	1233.266	1173.107
551.5193	-6.298257	-2.031975	378.3862	916.582	1500.468	1198.89	1176.092
551.8525	-6.177733	-16.82222	385.9344	932.6743	1486.061	1196.964	1196.318
552.1855	0.3271519	-9.057178	381.9631	949.3537	1479.894	1159.673	1202.584
552.5186	3.304454	2.570798	380.3595	953.7579	1480.149	1178.547	1212.196
552.8516	-1.456625	12.49637	382.5685	967.711	1456.835	1202.414	1206.57
553.1847	-15.37729	17.11801	390.4225	962.5499	1452.855	1206.869	1229.952
553.5177	-11.09948	23.42111	393.8944	977.5146	1472.847	1153.05	1242.977
553.8507	-8.340576	18.27236	382.7937	978.684	1501.972	1139.853	1251.591
554.1837	2.62695	9.540042	367.8848	1017.461	1496.961	1147.7	1249.129
554.5167	-4.66043	3.313574	368.3188	1041.017	1490.873	1157.926	1271.589
554.8497	9.851415	7.631198	384.3883	1056.497	1482.019	1110.373	1267.155
555.1827	3.421649	3.454824	404.213	1050.603	1512.909	1084.652	1251.472
555.5156	3.934821	4.471158	421.3752	1058.821	1519.102	1085.056	1241.345
555.8486	-4.858813	-6.252081	417.8376	1084.607	1516.628	1094.115	1260.36
556.1815	0.7851241	0.4704281	406.1123	1096.883	1485.961	1073.017	1285.911
556.5145	-4.481197	1.116621	414.1892	1122.246	1489.508	1042.389	1303.483
556.8474	-7.795001	4.77381	424.5539	1139.081	1490.145	1071.07	1304.048
557.1802	-10.88553	-7.146358	428.6858	1159.356	1505.261	1081.241	1295.134
557.5131	-8.721575	-1.501404	426.1978	1155.08	1476.862	1028.879	1270.848
557.846	-1.788492	9.258203	428.2751	1154.14	1464.787	967.9879	1252.232
558.1789	5.571969	14.76817	435.5655	1173.875	1444.509	966.8454	1250.061
558.5117	2.272637	13.6207	434.8885	1203.741	1471.656	973.6478	1253.926
558.8446	6.848193	19.04659	431.4243	1238.668	1479.333	940.3567	1265.139
559.1774	10.27415	13.32989	442.4163	1259.897	1515.981	937.0315	1286.24
559.5103	16.15451	-1.063536	465.9123	1280.819	1502.717	944.7401	1302.108
559.8431	7.326971	-5.080312	475.3473	1320.707	1502.601	970.9434	1289.288
560.1758	0.2092573	8.812523	456.7972	1352.91	1494.195	978.4642	1301.154
560.5087	-12.26639	10.28766	444.3546	1362.548	1505.9	1000.704	1312.638
560.8414	-6.074736	0.7818905	452.8681	1379.203	1505.775	999.9901	1309.012
561.1742	-13.70859	-1.109979	478.9418	1430.092	1497.671	984.5542	1288.751
561.507	-7.309965	1.168258	496.3853	1448.191	1490.475	958.0864	1280.029
561.8397	-9.271267	9.228481	487.2784	1444.072	1493.89	942.3552	1300.586
562.1724	3.047081	11.32969	486.1078	1426.505	1495.744	962.0796	1303.272
562.5051	-8.302572	11.35197	487.4042	1468.271	1508.238	988.4437	1307.099
562.8378	0.4993363	7.0431	496.8978	1488.313	1517.431	994.6774	1310.59
563.1705	-3.840301	15.95391	507.8728	1531.128	1532.59	971.5259	1332.914
563.5032	-0.4424402	19.38633	515.6348	1535.358	1526.101	970.038	1326.29
563.8359	-8.274496	19.08656	534.3719	1567.415	1512.539	986.3738	1330.958
564.1686	2.52358	13.02357	536.431	1576.199	1495.658	987.2994	1321.706
564.5012	3.096093	3.639456	545.4605	1633.323	1476.835	988.2672	1344.881
564.8339	1.436911	-0.3557959	536.6011	1656.743	1465.886	970.4567	1349.484
565.1664	-6.182631	5.3919	552.2383	1629.989	1475.359	998.672	1349.931
565.4991	4.445376	16.47837	561.8926	1637.639	1503.788	1054.003	1316.992
565.8317	8.897605	14.51498	571.1287	1728.777	1527.929	1087.71	1330.054
566.1643	5.110515	10.88537	579.1431	1774.406	1506.432	1075.551	1315.824
566.4969	-1.138319	2.409251	593.4501	1765.503	1496.347	1063.861	1321.311
566.8294	11.31027	5.655067	582.3269	1763.521	1496.987	1061.382	1312.806
567.162	10.97335	23.64772	556.4888	1799.482	1515.247	1037.325	1318.23
567.4945	11.34117	29.98165	570.4631	1779.464	1494.06	1031.276	1289.583
567.8271	-0.6367896	12.14922	609.7366	1759.83	1471.287	1062.763	1286.369
568.1596	4.508237	5.154759	624.8694	1740.98	1444.922	1081.355	1315.677
568.4921	-6.875932	9.584374	623.7668	1800.686	1451.982	1089.71	1324.97
568.8246	-15.27814	17.46707	610.2439	1847.593	1434.083	1097.914	1332.088
569.1571	-27.00341	7.484361	618.5004	1847.393	1436.669	1120.116	1314.001
569.4896	-9.035161	5.57091	624.376	1826.131	1426.894	1139.991	1311.17
569.822	-1.944395	-3.343817	640.3699	1851.331	1460.59	1175.659	1297.122
570.1545	-6.418272	4.131232	628.7696	1856.971	1437.596	1163.335	1317.228
570.4869	-24.06719	6.441067	646.5707	1875.231	1445.438	1120.539	1327.14
570.8194	-16.62168	18.67093	662.3459	1888.236	1460.699	1088.885	1322.151
571.1518	-3.590552	15.30344	655.5609	1879.793	1484.743	1102.493	1331.4
571.4842	11.6417	17.13382	634.1351	1839.858	1455.595	1144.761	1328.298
571.8166	4.600172	7.243671	624.4399	1862.572	1436.352	1227.942	1309.286
572.149	-2.842364	2.766004	645.6864	1852.579	1442.829	1230.81	1296.196
572.4813	-10.16828	-6.673148	666.7587	1849.699	1442.978	1222.109	1320.073
572.8137	-12.5998	5.563757	661.2312	1844.158	1446.87	1214.879	1330.511
573.1461	-10.38444	21.96008	654.3918	1860.603	1461.274	1229.474	1335.666
573.4784	2.041183	18.08661	667.9565	1859.839	1456.938	1204.901	1315.488
573.8107	10.59232	8.794907	696.65	1888.323	1437.723	1214.062	1309.639
574.1431	10.0147	20.1311	702.3751	1897.706	1441.37	1213.104	1301.549
574.4753	1.575019	30.05696	704.9517	1895.187	1494.883	1206.656	1323.138
574.8076	10.69715	12.96737	719.3801	1861.995	1523.69	1156.621	1316.263
575.1399	4.854352	-3.982483	746.1541	1866.414	1493.609	1130.438	1326.576
575.4722	5.271149	10.16464	762.0939	1901.15	1431.354	1174.33	1330.932
575.8044	-2.238877	18.50718	747.0242	1937.354	1456.884	1238.884	1352.025
576.1367	8.505734	21.99278	726.7183	1879.065	1496.785	1276.299	1384.413
576.4689	7.927364	17.75219	729.6439	1827.643	1525.092	1266.811	1405.04
576.8011	3.516879	20.3707	734.1843	1808.251	1512.172	1248.332	1380.044
577.1334	-5.889681	12.93608	737.2565	1819.794	1523.885	1269.227	1343.639
577.4656	-5.565167	15.85159	740.7112	1807.72	1502.035	1308.226	1350.594
577.7977	-0.1018724	15.62299	738.1652	1815.405	1514.347	1344.036	1390.038
578.1299	0.8104761	9.851376	725.9198	1781.971	1511.902	1304.196	1367.45
578.4621	-0.3007512	0.1841252	739.3191	1794.056	1498.668	1309.766	1340.733
578.7943	0.9663473	7.399636	763.5894	1790.746	1500.01	1294.092	1348.063
579.1264	-6.271018	19.72915	769.6091	1788.557	1539.627	1289.632	1420.578
579.4585	-4.930677	23.87269	763.0551	1754.28	1565.121	1232.963	1435.698
579.7906	-5.708004	15.04886	780.5366	1766.048	1547.667	1238.519	1403.981
580.1227	-10.71614	15.57288	802.1591	1769.511	1533.795	1247.417	1407.562
580.4548	-14.87547	24.00759	809.5201	1771.342	1525.22	1312.248	1413.41
580.7869	-2.109395	13.77743	821.2871	1747.782	1553.872	1351.241	1428.59
581.119	7.875147	6.389811	831.1508	1779.166	1599.698	1385.596	1444.221
581.451	7.058675	13.02673	838.4133	1774.37	1641.249	1328.79	1471.954
581.7831	-2.195656	32.89712	832.7524	1763.692	1648.283	1292.018	1474.217
582.1151	-0.7536536	35.2023	850.2	1744.568	1660.425	1292.477	1443.178
582.4471	-1.884171	20.22269	884.9344	1772.917	1678.867	1302.444	1422.292
582.7792	1.890247	5.490968	886.2698	1752.718	1679.514	1308.733	1416.464
583.1112	-2.200965	-4.157734	882.1393	1731.297	1687.884	1311.478	1441.496
583.4432	-1.172103	13.64532	907.9055	1698.494	1704.743	1311.459	1444.578
583.7751	-15.24036	11.28728	957.1666	1683.388	1735.319	1308.201	1430.03
584.1071	-20.64585	15.07962	968.8673	1674.641	1730.333	1305.584	1444.656
584.4391	-20.51643	-1.134762	973.8782	1710.534	1758.37	1336.611	1481.538
584.771	-2.585981	-0.4725793	1002.026	1705.984	1769.135	1361.383	1484.479
585.103	5.831555	0.1132723	1010.765	1715.538	1792.685	1344.589	1461.166
585.4349	13.00479	17.23129	998.8029	1703.545	1780.069	1295.778	1450.51
585.7668	0.9548584	18.92885	979.4713	1712.072	1806.291	1301.65	1474.49
586.0987	-3.327301	11.46563	1001.369	1693.369	1835.244	1362.207	1477.69
586.4305	-14.49946	2.838942	1026.987	1678.352	1856.635	1425.263	1461.691
586.7624	-18.71227	9.252513	1064.394	1649.227	1857.479	1465.523	1439.062
587.0943	-14.1111	16.38336	1078.538	1660.365	1858.21	1434.481	1440.082
587.4261	-5.424442	21.78709	1077.839	1647.308	1838.271	1321.966	1437.789
587.758	-6.165576	15.94051	1068.272	1678.265	1835.542	1295.02	1439.584
588.0898	-6.022441	16.77641	1081.857	1678.865	1868.927	1353.575	1438.632
588.4216	11.03436	14.44489	1109.091	1696.391	1915.434	1407.608	1432.209
588.7534	8.636223	18.84877	1136.665	1684.701	1944.552	1427.674	1410.588
589.0852	-3.799995	11.21893	1148.844	1719.441	1934.51	1472.326	1422.37
589.417	-14.97506	9.249114	1148.208	1718.614	1938.594	1468.302	1437.749
589.7487	-7.117905	8.892444	1163.583	1715.114	1971.886	1432.906	1431.171
590.0805	5.252012	11.32625	1199.673	1690.261	1993.663	1389.637	1410.741
590.4122	-3.832873	10.52471	1216.233	1678.04	1977.647	1353.765	1424.166
590.744	-12.04495	25.71637	1221.547	1654.248	1964.061	1317.99	1401.173
591.0757	-4.154457	28.81101	1248.111	1663.295	1973.355	1390.581	1398.209
591.4074	10.82799	17.18566	1263.564	1643.138	1937.571	1490.515	1372.561
591.7391	6.428384	7.163403	1269.225	1653.821	1955.922	1530.532	1378.742
592.0708	2.407347	19.98151	1274.72	1658.988	1981.603	1481.843	1362.938
592.4025	-2.658538	18.29828	1303.864	1658.531	2021.471	1486.663	1376.087
592.7341	-13.26191	16.86096	1307.092	1607.098	2023.944	1472.659	1330.503
593.0658	-17.08018	16.11433	1325.738	1611.503	2041.825	1455.584	1311.922
593.3974	-12.57991	14.66114	1344.077	1630.319	2030.62	1431.61	1306.155
593.729	-19.27932	11.05254	1367.804	1628.536	2053.127	1456.393	1325.033
594.0607	-15.26142	12.04904	1358.135	1586.612	2075.196	1455.209	1326.729
594.3923	-13.51836	9.204366	1355.832	1585.497	2087.485	1497.519	1348.071
594.7238	-6.471501	9.243794	1346.119	1618.585	2038.509	1530.339	1337.809
595.0554	-17.0714	17.473	1376.2	1665.683	2023.542	1580.672	1344.604
595.387	-8.234312	17.24379	1385.325	1638.651	2000.202	1561.955	1331.343
595.7185	-5.773198	14.59636	1406.406	1591.479	1992.565	1504.832	1325.942
596.05	-2.46497	21.8832	1377.894	1550.561	1970.768	1403.158	1294.174
596.3816	-4.449229	33.97934	1371.085	1556.788	1974.316	1369.198	1272.331
596.7131	0.7345166	27.51797	1350.11	1535.719	1961.977	1400.181	1233.714
597.0446	-3.065656	23.85214	1410.234	1554.621	1968.295	1454.299	1231.095
597.3761	2.649439	25.12516	1450.186	1579.974	1963.408	1470.81	1228.426
597.7076	3.079427	23.50199	1460.655	1586.411	1962.008	1442.472	1219.55
598.0391	0.8283359	20.97813	1397.115	1548.745	1954.132	1413.259	1199.504
598.3705	-6.495413	23.86372	1377.118	1536.519	1964.674	1425.09	1198.788
598.702	-1.679752	28.90534	1392.822	1527.685	1904.94	1453.771	1196.814
599.0334	-5.093911	26.97696	1439.784	1513.629	1859.336	1447.775	1193.247
599.3649	-8.835993	20.82703	1464.687	1476.423	1838.207	1382.564	1180.991
599.6963	-15.85627	21.24237	1485.854	1472.449	1890.615	1337.48	1172.496
600.0276	-9.744223	12.81441	1505.744	1488.47	1877.96	1361.765	1172.593
600.3591	-2.805889	18.23175	1486.204	1485.696	1848.661	1424.653	1173.912
600.6904	9.702353	23.96667	1426.848	1446.533	1778.681	1382.911	1160.84
601.0218	0.2668663	30.18505	1389.075	1426.113	1770.4	1338.603	1166.231
601.3531	-6.974378	31.32054	1394.541	1417.735	1790.316	1333.951	1157.926
601.6845	-8.95947	25.99318	1418.047	1410.429	1820.348	1390.844	1157.539
602.0158	-2.18097	21.09406	1410.571	1399.094	1785.358	1362.03	1145.853
602.3471	-3.336342	12.78234	1414.227	1418.486	1755.696	1341.914	1165.078
602.6785	-3.654642	23.1913	1419.058	1413.754	1737.398	1356.893	1154.186
603.0097	-4.121253	25.99292	1432.544	1424.659	1745.065	1394.556	1158.966
603.341	3.30135	24.76468	1439.352	1431.47	1710.483	1410.067	1151.905
603.6723	7.000401	13.37354	1474.562	1442.963	1696.278	1383.309	1163.911
604.0035	8.308533	15.87862	1491.247	1429.69	1667.615	1348.439	1156.675
604.3348	-9.016995	17.63198	1484.113	1417.823	1679.733	1330.173	1170.255
604.666	1.515241	30.19765	1479.038	1421.805	1640.831	1340.03	1175.308
604.9973	3.467946	26.65693	1472.967	1448.856	1645.204	1358.399	1208.185
605.3284	8.215482	26.75484	1466.084	1447.921	1635.83	1350.543	1205.48
605.6597	-3.220184	19.76081	1472.807	1430.072	1663.476	1316.064	1186.401
605.9908	14.79378	18.49256	1469.389	1408.975	1618.553	1307.568	1184.382
606.322	14.13945	21.4759	1447.128	1401.465	1596.868	1332.406	1234.129
606.6531	16.06415	23.44278	1427.411	1384.834	1581.713	1350.475	1286.636
606.9843	0.5631525	30.62842	1463.501	1384.872	1611.384	1318.371	1318.013
607.3154	0.83153	27.63938	1485.276	1393.946	1601.252	1302.409	1329.524
607.6466	9.018668	43.77826	1520.012	1408.432	1561.63	1313.534	1333.298
607.9777	24.71095	61.38508	1523.051	1417.312	1560.324	1313.634	1344.05
608.3088	25.63759	79.46075	1555.005	1383.462	1592.255	1306.885	1354.637
608.6399	16.799	70.31462	1529.596	1376.28	1596.251	1295.979	1345.143
608.9709	15.06561	53.0375	1508.869	1397.925	1529.148	1345.546	1340.978
609.302	2.88023	37.11821	1517.794	1434.423	1502.948	1369.702	1343.304
609.6331	-12.42371	31.82543	1560.982	1420.488	1507.452	1386.765	1371.298
609.9641	-12.85536	23.79429	1552.031	1383.792	1505.98	1340.791	1366.006
610.2952	-18.04418	25.39265	1520.881	1352.53	1449.122	1301.006	1379.428
610.6262	-35.97248	23.53161	1496.502	1341.549	1400.355	1246.614	1384.735
610.9572	-71.37244	34.91977	1485.888	1338.296	1388.695	1241.664	1412.759
611.2881	-90.70429	22.55567	1488.749	1310.387	1426.154	1216.405	1411.875
611.6191	-104.7875	18.12448	1474.819	1307.852	1445.26	1196.712	1425.219
611.9501	-80.58426	10.21336	1473.167	1334.858	1418.437	1217.156	1441.106
612.2811	-58.42309	18.73583	1519.565	1374.866	1403.818	1266.093	1477.403
612.612	-37.2687	29.0824	1577.892	1395.645	1413.788	1281.471	1496.494
612.943	-27.49969	36.26737	1635.828	1402.27	1412.024	1297.546	1510.856
613.2739	-17.11258	37.16496	1646.875	1387.46	1388.568	1322.498	1513.543
613.6048	-20.56533	27.30931	1626.257	1391.657	1396.219	1306.138	1543.276
613.9357	-18.82755	20.91737	1602.375	1407.835	1403.478	1291.581	1546.492
614.2666	-21.44616	31.3634	1613.245	1427.268	1420.845	1338.244	1555.34
614.5975	-17.94206	46.69307	1632.238	1433.881	1442.68	1353.016	1578.41
614.9283	-19.04013	37.29724	1647.686	1447.034	1465.992	1361.656	1620.425
615.2592	-16.84399	24.12551	1644.44	1453.792	1460.893	1371.691	1636.258
615.59	-27.8332	31.70213	1677.252	1475.041	1428.291	1431.714	1653.364
615.9208	-28.06312	46.84539	1721.07	1478.549	1391.121	1484.364	1672.474
616.2516	-18.18208	39.42681	1729.498	1491.313	1384.452	1548.257	1700.238
616.5825	-3.513721	31.78315	1674.971	1496.738	1408.498	1550.932	1696.491
616.9132	-5.00678	25.20194	1688.022	1496.963	1422.644	1519.972	1715.798
617.244	-17.45175	45.60786	1703.584	1467.617	1394.583	1524.86	1709.698
617.5748	-17.3682	56.77618	1740.588	1481.732	1378.579	1529.966	1707.496
617.9055	1.376671	50.05791	1771.15	1507.939	1373.33	1506.976	1687.563
618.2363	13.13973	37.48542	1832.93	1526.473	1407.567	1542.719	1730.635
618.567	11.23377	46.33752	1813.836	1506.295	1400.719	1584.734	1738.889
618.8977	-1.429795	56.13957	1818.675	1505.161	1400.845	1587.526	1717.858
619.2284	-12.54624	63.08142	1786.485	1491.966	1379.875	1578.645	1695.5
619.5591	-17.96585	62.26151	1784.67	1489.554	1396.066	1643.69	1744.174
619.8898	-15.01954	53.75512	1771.058	1493.563	1393.612	1655.374	1747.688
620.2205	-14.67438	48.59736	1828.554	1516.608	1408.345	1643.511	1753.3
620.5511	-11.1079	54.3076	1867.781	1528.452	1390.362	1587.966	1731.236
620.8818	-9.8496	53.64243	1887.141	1527.46	1399.536	1601.001	1731.493
621.2124	-8.830919	53.8191	1887.041	1523.245	1401.784	1675.814	1711.905
621.543	-6.83662	60.49022	1908.78	1512.515	1422.656	1783.798	1736.934
621.8736	3.677317	64.04739	1913.531	1496.356	1402.048	1793.811	1732.219
622.2042	11.07834	53.94109	1954.012	1504.194	1403.307	1812.919	1738.055
622.5348	3.552451	60.60868	1987.535	1488.705	1396.523	1862.086	1762.241
622.8654	-3.25784	66.04926	2011.481	1480.876	1405.436	1924.214	1826.222
623.1959	-6.301352	71.1275	2000.452	1447.575	1382.073	2004.707	1795.773
623.5265	-9.503304	66.62991	2019.885	1459.26	1373.644	2024.446	1731.123
623.857	-6.084122	75.46437	2013.73	1463.936	1350.945	1959.541	1667.375
624.1875	-7.600884	81.33604	2040.693	1491.999	1360.787	1920.945	1685.11
624.518	-0.2829928	77.6792	2048.955	1491.592	1371.674	1959.947	1732.443
624.8485	-16.48315	71.20343	2053.9	1492.399	1387.995	1982.971	1772.435
625.179	-10.44576	64.45936	2032.26	1499.148	1358.396	2004.134	1731.618
625.5095	-10.08215	74.83224	2041.133	1524.507	1371.194	2039.003	1665.139
625.84	5.410318	81.09787	2015.346	1533.338	1372.815	2022.205	1642.321
626.1704	0.8647398	85.78708	2001.134	1490.108	1377.6	2003.268	1647.451
626.5009	5.386522	83.40226	2007.172	1451.581	1363.053	1967.656	1645.759
626.8312	-16.6652	79.39521	2081.549	1423.864	1387.469	1925.721	1647.158
627.1617	-17.13485	77.98541	2153.542	1401.386	1392.879	1944.014	1614.425
627.4921	-16.92476	81.48811	2139.027	1376.345	1395.573	2015.272	1583.302
627.8224	2.652002	81.75751	2059.38	1395.739	1371.054	1988.37	1559.976
628.1528	0.8020456	81.86759	2069.753	1426.69	1347.307	1978.482	1596.972
628.4832	1.144868	81.49403	2130.082	1429.922	1318.494	2060.41	1600.141
628.8135	-10.67582	81.79877	2111.308	1419.72	1330.477	2082.617	1603.247
629.1439	-16.82354	98.01446	2086.69	1383.742	1345.231	1938.16	1527.452
629.4742	-21.78541	110.6124	2145.422	1396.917	1348.522	1825.033	1504.167
629.8046	-19.57813	111.3802	2188.683	1388.765	1315.329	1854.49	1496.97
630.1348	-11.75274	100.1811	2175.356	1391.944	1297.979	1964.328	1523.285
630.4651	-10.51329	95.40456	2158.246	1374.725	1324.735	1965.233	1502.112
630.7954	-17.11821	91.97211	2169.412	1384.696	1345.098	1981.745	1489.737
631.1257	-17.30155	101.5972	2177.033	1373.418	1345.82	2012.947	1481.618
631.4559	-6.877429	119.8011	2171.353	1377.956	1320.813	2065.971	1471.124
631.7862	-4.024076	112.2664	2183.262	1395.244	1309.284	2002.679	1441.056
632.1164	-2.117326	103.3095	2194.102	1404.986	1293.164	1952.279	1399.15
632.4466	3.246652	111.9362	2199.273	1379.568	1282.88	1899.495	1389.704
632.7768	13.17836	117.8965	2194.896	1375.069	1293.845	1836.523	1431.224
633.107	23.13183	118.3095	2205.909	1370.271	1273.453	1780.287	1436.602
633.4372	12.54136	108.8069	2228.023	1401.053	1261.898	1801.699	1412.111
633.7673	7.104487	124.0753	2231.226	1394.389	1241.666	1830.975	1371.961
634.0975	2.660508	125.8601	2252.691	1383.147	1273.578	1894.766	1342.328
634.4277	4.617782	127.8768	2264.725	1348.351	1269.058	1874.027	1290.431
634.7578	-1.897411	110.7381	2306.977	1361.024	1286.403	1812.02	1295.529
635.0879	2.031884	115.6179	2304.345	1381.302	1278.036	1776.357	1289.567
635.418	3.468731	114.9391	2334.878	1388.395	1270.925	1918.96	1282.062
635.7481	11.14121	120.1346	2334.971	1383.767	1245.37	1994.584	1281.653
636.0782	5.970494	121.2645	2341.261	1386.546	1248.428	1867.318	1289.16
636.4083	7.261311	128.4623	2327.301	1395.601	1257.609	1710.063	1271.07
636.7383	0.4480041	134.4283	2376.495	1402.449	1271.008	1704.17	1258.632
637.0684	6.428513	140.7992	2417.443	1408.264	1274.924	1685.317	1261.061
637.3984	2.450657	133.8243	2412.716	1416.231	1302.096	1662.849	1254.659
637.7284	3.19313	135.5438	2394.77	1408.629	1280.503	1638.963	1240.918
638.0584	0.6773246	140.3518	2413.17	1412.494	1257.109	1658.502	1224.279
638.3884	-5.470888	145.4902	2413.635	1412.235	1242.027	1602.284	1188.651
638.7184	-6.931556	139.1316	2405.034	1410.02	1254.138	1573.979	1179.292
639.0484	-4.542991	139.5721	2391.2	1405.804	1229.685	1554.666	1157.357
639.3784	0.6751279	147.1429	2449.578	1419.448	1225.301	1544.601	1146.526
639.7083	8.14348	162.2946	2509.776	1429.449	1242.322	1537.159	1128.894
640.0382	6.750286	167.0909	2600.265	1457.766	1273.672	1543.477	1128.343
640.3682	2.667014	162.8552	2616.115	1459.628	1277.295	1574.726	1121.388
640.6981	-4.434385	172.7774	2637.785	1450.392	1281.899	1581.965	1108.408
641.028	1.658811	177.5826	2628.148	1443.768	1285.497	1568.381	1082.572
641.3578	-0.4489812	188.829	2654.661	1478.709	1304.886	1579.388	1077.096
641.6877	-9.036067	186.0668	2666.151	1492.406	1296.995	1587.979	1115.905
642.0176	-10.45156	182.4125	2706.285	1486.124	1278.967	1561.504	1120.271
642.3474	-3.377667	169.7946	2709.327	1498.258	1267.033	1502.394	1079.772
642.6772	9.111713	179.4234	2694.548	1565.729	1277.059	1461.466	1037.918
643.0071	16.5315	191.3819	2662.043	1630.486	1281.139	1442.172	1014.273
643.3369	2.848315	197.0388	2703.829	1618.979	1279.574	1455.782	1006.519
643.6667	-17.97813	180.3645	2793.331	1595.48	1277.877	1455.324	992.135
643.9965	-21.7082	190.4082	2881.658	1624.349	1291.875	1434.214	987.3211
644.3262	9.366194	211.9621	2977.697	1657.246	1292.796	1429.427	972.7003
644.656	20.07152	220.2999	3089.607	1647.039	1317.522	1414.714	971.7107
644.9857	13.39033	202.365	3143.364	1657.141	1318.165	1385.237	956.0098
645.3155	-4.763867	201.499	3112.911	1716.282	1321.872	1360.53	955.2681
645.6452	11.51925	204.7753	3086.598	1784.596	1306.98	1369.418	950.6555
645.9749	15.38724	221.8777	3103.51	1806.986	1344.816	1378.184	964.1363
646.3046	7.404374	243.5352	3141.122	1794.801	1346.21	1362.863	948.6741
646.6343	-7.494051	245.837	3195.099	1754.29	1361.638	1320.633	941.8597
646.964	9.291357	238.4572	3235.03	1754.791	1350.797	1291.937	922.9337
647.2936	12.10766	247.3441	3302.283	1793.415	1388.588	1317.096	945.0764
647.6233	10.13978	249.7119	3348.561	1843.826	1395.682	1355.932	951.402
647.9529	-1.58627	249.003	3465.036	1868.645	1404.14	1378.429	960.2237
648.2825	7.598278	264.285	3561.724	1886.84	1378.914	1358.426	962.6671
648.6122	2.628717	286.4046	3647.555	1928.93	1399.45	1298.62	956.267
648.9418	0.01317834	283.6585	3639.517	1963.352	1400.733	1225.962	936.8203
649.2714	-1.259515	271.9286	3651.905	1990.468	1406.256	1236.982	923.3624
649.6009	8.873892	278.7759	3663.41	1997.157	1396.908	1296.912	921.9597
649.9305	-3.336596	296.2683	3727.259	2022.734	1426.304	1349.269	929.5761
650.26	-7.357604	319.8642	3828.496	2028.089	1442.421	1367.152	945.1016
650.5895	-4.292941	320.2248	3931.093	2075.235	1459.027	1379.587	957.6532
650.9191	1.705456	326.6784	3949.524	2137.622	1445.449	1368.01	956.2756
651.2486	-4.591769	329.171	3899.403	2205.928	1454.511	1337.861	960.626
651.5781	10.03559	327.3142	3869.09	2193.477	1470.859	1330.893	972.5375
651.9076	4.106695	322.8346	3904.245	2195.859	1490.578	1332.453	988.488
652.2371	-2.664936	328.6234	3932.619	2174.86	1480.107	1338.455	983.5623
652.5665	-3.415124	343.4362	3938.732	2220.397	1476.042	1329.374	972.3528
652.896	12.75364	350.9255	4008.35	2254.733	1489.092	1343.362	968.9345
653.2254	12.26311	366.3105	4137.992	2295.302	1518.765	1363.402	976.6693
653.5548	10.41556	370.7965	4189.386	2294.444	1510.714	1386.866	993.8795
653.8842	8.306594	367.6176	4194.992	2326.245	1520.172	1418.018	1013.11
654.2136	10.34941	373.259	4200.619	2368.844	1531.488	1430.388	1004.306
654.543	19.21684	386.4241	4269.346	2372.578	1547.726	1485.997	1010.089
654.8724	14.16553	399.281	4327.599	2368.784	1516.325	1534.221	1034.847
655.2018	2.45868	415.9573	4406.752	2382.738	1512.753	1552.246	1068.261
655.5311	-8.195628	424.6681	4432.265	2405.197	1499.719	1488.914	1057.105
655.8605	-2.971906	427.9822	4483.475	2402.222	1499.986	1465.418	1060.768
656.1898	-5.836747	411.7259	4489.41	2369.852	1486.519	1474.993	1082.502
656.5191	2.214159	411.5463	4546.176	2380.365	1509.948	1459.29	1086.472
656.8484	10.58517	421.668	4496.795	2399.76	1537.048	1431.117	1076.72
657.1777	17.99275	436.0139	4476.062	2466.038	1559.375	1415.608	1070.165
657.507	8.552333	439.5639	4469.145	2439.363	1530.833	1415.522	1109.728
657.8362	-0.8777021	449.8653	4556.679	2392.279	1499.388	1421.93	1146.292
658.1655	-4.533165	459.2762	4559.469	2376.182	1458.232	1440.552	1162.268
658.4947	-7.030839	455.1808	4531.22	2399.675	1461.961	1468.467	1161.309
658.8239	8.840663	458.9189	4510.358	2427.957	1464.188	1451.972	1164.019
659.1531	17.12471	472.7285	4529.57	2451.414	1494.105	1428.223	1181.227
659.4823	21.69585	481.7644	4543.827	2472.323	1480.66	1428.097	1189.956
659.8115	13.34542	490.0032	4585.749	2440.496	1493.747	1474.95	1207.982
660.1407	12.10336	496.0001	4613.583	2415.965	1492.372	1489.445	1218.346
660.4698	1.119321	506.9906	4697.499	2418.469	1515.157	1479.096	1242.006
660.799	4.310122	512.4026	4692.659	2403.286	1501.962	1495.703	1242.99
661.1281	6.743912	523.6726	4728.497	2449.275	1513.129	1562.66	1255.028
661.4573	8.336659	523.4862	4750.527	2473.341	1500.699	1587.282	1262.958
661.7864	-6.155362	547.8247	4805.677	2465.169	1504.827	1564.128	1278.55
662.1155	-4.424227	567.4988	4784.851	2396.508	1478.753	1544.019	1262.325
662.4445	-5.374824	568.1729	4813.489	2398.924	1462.13	1567.825	1260.295
662.7736	11.1068	557.5703	4831.759	2382.767	1432.278	1582.024	1266.942
663.1027	9.531971	575.4544	4889.144	2363.496	1427.106	1564.004	1294.732
663.4317	14.5277	588.7084	4902.114	2344.12	1415.265	1529.851	1337.709
663.7607	13.84157	604.2287	4927.744	2359.576	1414.543	1519.57	1369.533
664.0898	17.68047	606.4104	4883.536	2353.324	1395.07	1526.406	1358.311
664.4188	9.321141	611.3016	4905.306	2358.758	1387.151	1575.438	1350.834
664.7478	1.377276	596.0234	4939.205	2341.345	1407.026	1634.045	1382.491
665.0768	10.9025	610.9847	5045.061	2341.282	1456.861	1664.629	1417.84
665.4058	24.7222	632.2081	5009.792	2344.388	1469.145	1660.094	1400.785
665.7347	30.62777	654.2314	4967.463	2354.306	1472.893	1661.506	1375.482
666.0637	8.919847	673.6595	4887.006	2322.957	1450.017	1695.299	1396.989
666.3926	1.797947	671.2147	4900.555	2327.938	1435.726	1724.106	1424.187
666.7215	10.16409	658.843	4874.272	2318.015	1407.433	1719.023	1436.383
667.0504	21.01245	651.8958	4953.694	2314.074	1409.326	1692.725	1449.994
667.3793	15.12355	674.658	4957.305	2287.787	1392.539	1704.269	1492.776
667.7082	15.42529	677.6868	4975.949	2296.755	1409.745	1773.465	1513.31
668.037	25.31425	688.006	4950.793	2265.083	1411.318	1807.721	1512.28
668.3659	25.23189	713.476	4952.249	2277.184	1431.216	1838.835	1492.521
668.6948	18.88296	739.5273	4964.07	2286.914	1416.446	1827.562	1480.589
669.0236	17.6034	751.8205	5049.118	2324.837	1405.03	1799.358	1490.125
669.3524	21.31347	755.4092	5091.392	2313.283	1388.312	1752.687	1497.267
669.6812	18.34834	775.6068	5110.102	2308.772	1395.95	1799.83	1506.364
670.01	11.52499	784.5751	5058.712	2279.072	1392.439	1827.136	1508.551
670.3388	13.21642	792.8759	4992.892	2277.131	1368.168	1808.229	1530.786
670.6675	17.04029	801.7961	4901.921	2264.579	1356.953	1741.046	1510.067
670.9963	18.85615	832.3635	5000.024	2268.665	1345.876	1757.797	1507.258
671.3251	12.08995	845.6181	5115.081	2262.691	1342.787	1782.24	1504.185
671.6538	8.16	870.6367	5151.454	2261.074	1348.195	1799.25	1519.587
671.9825	10.61877	877.9334	5016.404	2227.556	1375.025	1774.694	1505.515
672.3112	6.026748	894.8028	4961.379	2223.021	1395.097	1813.019	1513.648
672.6399	8.262629	901.9987	4960.539	2207.358	1373.902	1851.511	1520.036
672.9686	17.72939	951.0226	5037.747	2195.788	1356.11	1871.866	1534.084
673.2972	30.3116	955.3054	5048.633	2183.847	1347.266	1835.885	1545.525
673.6259	26.47222	964.7206	5144.339	2214.501	1373.001	1810.38	1560.008
673.9545	19.98647	974.1176	5180.514	2197.89	1383.552	1780.222	1563.841
674.2832	18.45238	1000.227	5224.861	2188.028	1408.292	1795.699	1563.32
674.6118	16.23333	1005.706	5178.717	2174.182	1396.027	1829.877	1551.965
674.9404	17.53064	1029.91	5210.223	2195.577	1398.703	1866.368	1558.756
675.269	19.23621	1054.811	5222.31	2193.749	1384.317	1847.47	1561.933
675.5976	26.48354	1073.193	5250.656	2203.071	1388.538	1786.303	1583.937
675.9261	30.29714	1093.662	5285.947	2171.408	1372.427	1762.739	1586.577
676.2547	24.63189	1135.218	5320.99	2154.178	1368.964	1782.252	1591.699
676.5833	19.58469	1146.164	5237.02	2138.572	1348.202	1803.272	1587.84
676.9117	18.75949	1162.357	5162.832	2144.818	1383.214	1835.296	1600.692
677.2403	26.64522	1168.698	5136.389	2146.078	1404.527	1877.776	1593.039
677.5688	31.70974	1197.283	5164.903	2153.642	1404.605	1895.047	1601.587
677.8973	28.74765	1215.013	5159.387	2127.729	1368.62	1877.666	1603.029
678.2257	23.22914	1258.442	5233.688	2128.414	1384.847	1878.409	1625.01
678.5542	23.21084	1291.203	5228.23	2125.893	1379.912	1893.764	1617.227
678.8826	22.21607	1326.173	5200.863	2150.796	1392.942	1916.706	1639.083
679.2111	28.80657	1346.039	5144.259	2158.634	1393.827	1929.107	1626.24
679.5395	42.87806	1374.34	5188.953	2167.579	1413.32	1930.056	1639.64
679.8679	44.54798	1397.542	5224.722	2136.912	1418.851	1952.674	1636.609
680.1963	28.44747	1417.15	5240.849	2140.181	1426.904	2024.836	1644.068
680.5247	27.0199	1426.285	5175.405	2142.82	1419.785	2008.965	1621.944
680.8531	28.90135	1477.478	5176.563	2154.204	1447.191	1969.429	1629.23
681.1815	26.35144	1520.454	5180.14	2139.713	1458.229	1946.526	1630.263
681.5098	20.60352	1568.939	5254.729	2134.49	1440.286	1969.167	1636.269
681.8381	23.3961	1591.513	5284.63	2131.212	1439.61	1970.396	1611.764
682.1664	28.68304	1630.845	5343.717	2158.358	1498.187	1968.68	1618.584
682.4948	45.15136	1647.168	5346.322	2166.655	1504.789	1976.708	1621.216
682.8231	56.67211	1716.838	5384.666	2169.594	1475.388	1945.241	1647.704
683.1513	59.02611	1771.967	5332.501	2155.932	1488.424	1959.527	1642.135
683.4796	48.41102	1816.05	5290.645	2197.799	1528.072	1975.545	1635.63
683.8079	51.05354	1829.982	5301.57	2204.352	1541.606	1986.777	1629.836
684.1361	48.11565	1897.184	5365.775	2204.663	1551.613	1975.305	1647.627
684.4644	42.02141	1947.135	5340.763	2166.45	1564.859	1953.158	1639.335
684.7925	43.3949	2010.895	5285.793	2203.306	1565.634	1968.954	1641.576
685.1207	52.75023	2037.319	5264.128	2218.111	1573.011	1984.91	1654.088
685.449	61.57716	2087.424	5310.465	2255.219	1607.681	2010.427	1686.283
685.7771	61.53616	2123.813	5313.235	2235.987	1619.952	1995.972	1670.315
686.1053	77.03664	2223.553	5290.467	2255.842	1622.586	2010.999	1668.444
686.4335	67.16404	2262.721	5246.248	2269.724	1606.932	2021.08	1673.137
686.7616	64.82018	2324.878	5216.347	2331.932	1628.773	2045.865	1696.671
687.0897	67.23268	2372.045	5189.487	2352.305	1679.411	2045.615	1673.137
687.4178	75.79986	2462.365	5228.731	2366.675	1724.476	2053.317	1679.34
687.7459	81.53671	2489.796	5202.8	2350.36	1711.851	2039.056	1696.481
688.074	88.39342	2538.629	5165.111	2353.051	1690.463	2047.731	1708.09
688.4021	103.1304	2579.486	5129.542	2339.463	1693.268	2026.826	1694.179
688.7302	93.48742	2667.515	5199.928	2332.961	1740.519	2010.862	1693.674
689.0582	100.2794	2717.083	5223.776	2335.676	1759.78	2017.917	1688.416
689.3862	105.7539	2768.89	5259.447	2366.66	1778.588	2071.166	1675.796
689.7143	117.1567	2810.823	5263.898	2373.959	1775.92	2077.654	1674.129
690.0423	117.3162	2900.159	5276.155	2390.152	1784.378	2082.556	1676.039
690.3703	106.0114	2936.296	5186.07	2359.721	1759.697	2087.231	1659.542
690.6983	104.9074	3019.257	5155.81	2342.788	1749.761	2108.048	1652.771
691.0262	114.4173	3067.247	5149.007	2340.035	1750.958	2063.805	1647.002
691.3542	139.9421	3137.787	5141.896	2372.893	1768.846	2054.351	1660.613
691.6822	147.2173	3155.909	4999.557	2348.021	1777.354	2049.153	1650.943
692.0101	151.6115	3245.984	4921.839	2346.613	1782.911	2042.37	1663.187
692.338	151.3526	3300.141	4869.265	2360.744	1767.271	1973.754	1678.19
692.666	158.2393	3377.877	4849.103	2410.213	1765.431	1944.929	1703.009
692.9938	164.2885	3419.202	4822.769	2385.303	1771.503	1947.241	1690.184
693.3217	175.5269	3490.673	4809.314	2354.238	1795.643	1938.631	1662.014
693.6496	177.2036	3526.636	4758.708	2338.154	1818.203	1899.141	1636.851
693.9774	186.2496	3592.502	4702.971	2377.076	1820.281	1870.513	1649.671
694.3053	187.3324	3631.371	4658.375	2378.414	1800.581	1850.452	1650.52
694.6331	197.5629	3676.766	4693.928	2388.427	1768.169	1855.038	1635.36
694.9609	203.3388	3661.686	4631.225	2369.745	1749.325	1851.15	1628.105
695.2888	219.5067	3719.629	4598.324	2363.068	1765.594	1840.496	1642.486
695.6165	237.695	3740.753	4501.354	2341.664	1770.391	1809.816	1641.271
695.9443	252.1504	3832.663	4483.348	2336.859	1758.732	1812.177	1609.61
696.2721	239.0987	3907.723	4390.798	2307.767	1728.46	1773.162	1587.096
696.5998	238.3803	3992.191	4416.855	2337.193	1754.299	1734.983	1611.368
696.9276	255.6803	4001.086	4370.862	2331.244	1757.469	1694.408	1632.178
697.2553	281.3698	4045.037	4333.084	2301.604	1766.114	1672.17	1632.75
697.583	286.0666	4092.767	4270.963	2247.369	1741.454	1663.271	1612.162
697.9107	286.8811	4167.568	4287.371	2263.472	1770.872	1685.58	1632.357
698.2384	297.3934	4194.344	4171.615	2277.621	1780.907	1680.912	1609.008
698.566	313.7852	4221.655	4104.195	2305.971	1800.32	1644.884	1587.685
698.8937	325.9878	4216.728	4065.649	2296.419	1765.675	1588.959	1569.335
699.2214	343.0845	4255.606	4084.029	2287.637	1763.151	1582.765	1585.183
699.549	357.3118	4217.999	4036.898	2243.715	1739.267	1535.048	1602.662
699.8766	373.4567	4253.813	3989.411	2220.59	1730.429	1520.83	1610.535
700.2042	370.8006	4306.506	3883.909	2236.92	1702.137	1514.534	1589.29
700.5319	376.8086	4365.725	3855.41	2290.723	1720.331	1556.281	1570.509
700.8594	393.0069	4417.206	3849.763	2286.483	1715.283	1522.162	1533.75
701.187	409.7025	4549.023	3891.731	2235.821	1749.791	1474.431	1512.515
701.5145	418.8972	4598.777	3822.45	2197.09	1736.725	1477.106	1502.657
701.8421	425.6757	4607.967	3750.761	2216.013	1745.315	1569.391	1508.51
702.1696	447.074	4578.12	3641.582	2248.469	1710.945	1646.237	1478.108
702.4971	464.7751	4647.762	3626.328	2265.388	1718.056	1617.594	1473.152
702.8246	483.8273	4693.792	3557.451	2237.534	1704.168	1512.086	1475.817
703.1522	500.1394	4758.565	3518.57	2231.246	1719.926	1451.225	1475.597
703.4796	500.761	4740.624	3554.916	2199.284	1704.724	1446.195	1448.679
703.8071	513.1954	4773.654	3646.704	2188.366	1702.423	1475.152	1452.807
704.1345	552.5061	4798.948	3596.541	2135.286	1701.934	1477.347	1447.967
704.462	581.1395	4929.744	3524.905	2139.186	1739.726	1492.66	1440.928
704.7894	588.6212	4997.582	3456.322	2152.663	1714.028	1481.252	1408.243
705.1168	623.7328	5088.686	3441.752	2205.923	1692.658	1500.253	1407.04
705.4442	652.0139	5118.055	3397.593	2209.981	1642.59	1509.205	1389.733
705.7716	661.697	5229.492	3381.208	2231.377	1645.22	1549.695	1391.935
706.099	658.3764	5240.865	3311.091	2213.476	1636.88	1540.998	1418.945
706.4263	707.7546	5273.474	3296.255	2196.663	1673.246	1515.327	1438.986
706.7537	729.108	5209.517	3286.99	2170.563	1671.76	1486.644	1410.425
707.081	762.8682	5164.287	3319.954	2173.706	1665.066	1513.783	1385.005
707.4083	759.0248	5161.617	3301.687	2160.307	1625.574	1507.16	1372.186
707.7357	761.9953	5321.751	3276.592	2116.59	1609.546	1449.898	1367.452
708.0629	775.0712	5424.834	3208.366	2101.138	1605.571	1407.654	1367.228
708.3903	826.2625	5480.799	3211.179	2100.656	1621.362	1382.914	1387.471
708.7175	870.043	5452.238	3253.846	2088.658	1610.813	1379.155	1387.98
709.0447	897.5044	5500.789	3363.349	2051.925	1591.576	1375.977	1398.733
709.372	909.0292	5526.883	3348.437	2029.274	1566.119	1389.464	1399.122
709.6992	928.6197	5614.999	3285.385	2036.337	1547.655	1400.553	1405.311
710.0264	949.6985	5614.323	3159.401	2013.764	1536.824	1447.28	1401.664
710.3536	975.3651	5661.1	3189.976	2029.438	1521.216	1456.815	1406.214
710.6808	1010.517	5612.574	3209.431	2068.272	1514.83	1396.06	1374.217
711.008	1063.579	5632.114	3213.386	2090.453	1525.766	1343.612	1352.188
711.3351	1097.514	5693.629	3123.939	2029.432	1510.73	1337.09	1375.823
711.6624	1132.403	5838.224	3095.662	1975.72	1496.475	1345.478	1436.643
711.9894	1153.997	5861.109	3119.209	1954.478	1467.641	1336.204	1438.888
712.3166	1184.348	5865.39	3162.285	1991.586	1437.567	1331.494	1394.98
712.6437	1213.878	5885.394	3119.096	2021.444	1406.74	1318.807	1378.179
712.9708	1280.138	5991.287	3066.158	2052.066	1402.424	1371.769	1391.911
713.2979	1308.223	6140.461	3065.343	2018.006	1395.833	1429.705	1390.51
713.6249	1316.932	6304.324	3068.748	1985.264	1393.551	1420.301	1377.417
713.952	1306.295	6316.048	2997.426	1949.29	1385.182	1329.126	1360.352
714.2791	1351.484	6293.358	2992.798	1967.492	1373.005	1301.266	1342.694
714.6061	1435.927	6273.043	3035.537	2011.591	1341.503	1321.817	1313.413
714.9331	1534.346	6347.732	3043.761	2058.106	1323.389	1389.404	1345.626
715.2601	1566.863	6381.273	2983.396	2046.396	1288.214	1435.135	1358.474
715.5871	1553.926	6423.039	3029.764	2023.338	1282.103	1508.866	1391.118
715.9141	1553.676	6330.92	3058.301	2000.863	1255.072	1522.975	1406.183
716.241	1629.421	6460.761	3072.386	2012.325	1249.652	1526.31	1439.024
716.568	1718.694	6650.914	3008.221	1989.751	1243.515	1535.424	1382.666
716.895	1785.584	6787.08	2982.714	2021.019	1238.499	1579.578	1338.193
717.2219	1798.801	6789.191	2934.567	2013.155	1217.697	1586.838	1347.281
717.5488	1822.354	6833.171	2949.69	2026.859	1214.782	1557.981	1385.28
717.8757	1830.984	6832.762	2965.161	1990.854	1213.523	1531.48	1392.474
718.2026	1916.066	6816.599	2959.258	2001.75	1198.048	1549.651	1377.997
718.5294	2014.133	6856.728	2905.056	1973.302	1160.012	1617.176	1358.019
718.8563	2112.678	6952.05	2934.367	1996.556	1144.498	1627.046	1334.555
719.1831	2116.649	7032.46	2969.938	2011.955	1118.325	1569.388	1305.193
719.5099	2158.953	7133.269	2927.276	2034.335	1095.748	1636.684	1313.641
719.8368	2198.425	7158.618	2844.698	2008.565	1065.627	1775.423	1328.375
720.1636	2271.927	7214.264	2803.526	2005.615	1072.204	1804.816	1345.258
720.4904	2319.954	7310.74	2832.199	1999.224	1043.917	1722.386	1336.93
720.8171	2385.825	7423.754	2867.271	1981.459	1007.484	1696.27	1360.76
721.1439	2419.779	7473.495	2917.74	1928.823	994.2766	1740.243	1345.879
721.4707	2509.624	7563.476	2897.087	1877.943	1018.587	1788.441	1308.288
721.7974	2580.398	7606.085	2826.317	1848.657	1021.51	1767.313	1272.365
722.1241	2634.702	7681.61	2761.014	1851.976	995.0598	1702.877	1280.071
722.4509	2689.119	7640.058	2723.343	1849.59	937.7226	1667.324	1264.31
722.7776	2823.04	7667.6	2720.373	1806.396	912.4097	1666.006	1219.985
723.1042	2923.643	7670.948	2657.01	1782.624	891.3525	1576.465	1154.173
723.4309	2983.355	7728.611	2601.523	1789.604	880.2051	1532.132	1130.099
723.7576	2983.758	7607.85	2568.345	1798.805	849.4588	1530.213	1124.646
724.0842	2973.147	7577.591	2632.156	1809.724	836.981	1601.762	1131.722
724.4109	2969.09	7630.423	2656.633	1789.994	819.9573	1586.806	1105.075
724.7375	3098.502	7671.558	2631.168	1738.704	798.6395	1560.103	1080.971
725.0641	3266.549	7509.12	2597.827	1701.909	777.5024	1537.37	1056.388
725.3907	3353.844	7566.186	2669.025	1695.651	766.6193	1556.429	1050.502
725.7173	3372.286	7673.191	2726.684	1650.826	752.687	1587.134	1038.043
726.0438	3503.721	7768.169	2741.545	1593.794	726.1553	1584.269	1020.386
726.3704	3616.312	7758.647	2746.752	1580.14	708.9838	1611.248	987.7671
726.6969	3663.828	7795.959	2742.694	1603.07	709.0636	1656.958	967.0911
727.0234	3628.794	7738.119	2697.178	1596.382	700.3674	1595.924	941.3335
727.35	3667.32	7778.799	2666.955	1560.775	704.1906	1404.801	920.2885
727.6765	3724.95	7944.427	2675.078	1504.237	701.921	1261.886	904.1795
728.0029	3793.344	8049.755	2650.293	1462.359	695.1191	1340.777	892.0525
728.3294	3823.237	8079.219	2587.116	1413.592	681.1188	1457.416	870.1395
728.6559	3931.57	8106.141	2569.551	1406.161	688.1569	1538.025	843.3607
728.9823	4052.108	8046.819	2507.533	1378.056	686.824	1478.546	831.293
729.3088	4119.725	7923.232	2490.866	1353.66	691.2019	1464.172	809.9838
729.6352	4220.019	7832.208	2470.651	1312.926	697.7415	1496.113	805.9061
729.9616	4406.717	7933.344	2507.884	1300.211	713.0657	1541	796.8341
730.288	4445.95	7966.962	2461.455	1252.56	718.4188	1455.7	781.222
730.6144	4397.458	8034.009	2476.187	1229.794	730.9099	1390.383	765.582
730.9407	4432.358	8002.999	2465.012	1181.38	733.9261	1354.425	741.2614
731.2671	4604.453	8099.054	2457.885	1152.725	745.8599	1364.119	720.8215
731.5934	4672.443	8067.629	2434.607	1102.41	747.6838	1366.687	708.2944
731.9197	4697.102	7958.079	2448.662	1095.083	769.72	1336.568	720.6011
732.246	4727.987	7785.325	2467.288	1088.044	774.6541	1234.62	711.1505
732.5723	4885.182	7958.444	2502.644	1084.138	765.8731	1138.593	709.0842
732.8986	4947.599	8195.272	2518.999	1027.366	774.0739	1144.093	687.45
733.2249	4942.444	8199.814	2483.57	1000.95	801.4498	1177.221	678.3897
733.5511	5005.031	8016.346	2422.612	990.2877	819.6042	1144.432	674.5853
733.8774	5264.586	7949.135	2422.989	964.0331	833.4882	1051.745	682.1993
734.2036	5309.489	8032.216	2511.617	907.1463	880.7843	1019.068	677.7547
734.5298	5272.03	8127.646	2589.572	881.009	904.8737	1043.874	680.0721
734.8561	5319.836	8001.573	2596.038	883.5186	907.4251	1091.263	687.4042
735.1823	5633.241	7737.575	2587.234	894.9678	927.8817	1090.156	688.9904
735.5084	5837.754	7630.184	2599.73	876.3489	977.3265	1063.12	688.032
735.8346	5972.61	7869.327	2620.828	842.2094	1036.244	1012.693	685.2017
736.1608	5943.579	7991.978	2605.626	801.3285	1072.381	981.0017	705.175
736.4869	5827.715	8053.677	2605.992	785.0203	1109.041	911.8293	730.8344
736.813	5741.163	8053.583	2560.104	764.1111	1138.595	880.0735	723.7141
737.1391	5906.02	8071.218	2624.786	750.5563	1169.782	890.9656	706.6937
737.4652	6119.009	8034.278	2659.981	721.9722	1169.134	901.9044	697.3276
737.7913	6291.771	8033.565	2638.254	706.8984	1185.417	915.0084	707.8474
738.1174	6392.382	7946.602	2533.696	696.6892	1209.36	928.5648	699.3563
738.4434	6566.952	7705.573	2570.861	672.3256	1238.355	953.4219	698.2023
738.7695	6668.272	7558.698	2646.694	629.0869	1266.726	920.2055	710.0868
739.0955	6912.329	7612.448	2664.465	630.1163	1320.746	873.8488	737.0024
739.4215	7131.508	7656.421	2651.099	608.5856	1334.979	847.0422	756.5675
739.7475	7311.721	7589.632	2650.897	597.5138	1339.748	917.9269	759.6046
740.0735	7370.161	7381.026	2584.354	577.725	1351.426	969.3669	746.1946
740.3995	7498.118	7068.268	2513.7	587.6768	1375.961	970.476	723.6303
740.7255	7722.223	6653.197	2503.37	559.2095	1391.288	899.0334	711.4314
741.0514	8026.79	6345.585	2596.439	539.6052	1417.807	847.3256	712.6602
741.3773	8239.978	6184.771	2611.211	520.2219	1451.839	802.1075	717.173
741.7032	8267.236	6221.851	2555.979	525.0397	1477.149	827.1378	714.9575
742.0292	8239.096	6245.605	2424.258	531.6846	1485.941	952.5593	706.3004
742.355	8377.691	6190.789	2330.384	521.2149	1480.647	1028.22	692.525
742.6809	8603.888	5964.002	2292.469	511.0627	1471.929	972.5397	714.8476
743.0068	8707.754	5752.391	2280.8	507.2405	1503.126	873.5183	750.0417
743.3326	8547.03	5598.425	2269.251	482.6498	1506.399	863.5717	778.8622
743.6585	8401.085	5515.071	2244.524	476.2259	1507.325	886.9309	796.8911
743.9843	8481.594	5349.161	2229.353	482.083	1487.126	879.6276	798.6312
744.3101	8659.583	5261.429	2195.536	479.711	1518.946	848.3249	793.8216
744.6359	8706.532	5100.632	2107.316	462.66	1532.378	839.0419	779.7529
744.9617	8827.726	4842.593	2062.066	478.4165	1572.988	891.4111	814.3307
745.2875	8983.752	4641.25	2080.424	504.4499	1546.634	966.7128	861.2467
745.6132	9188.771	4603.326	2108.358	513.2092	1525.346	984.8371	887.8901
745.939	9190.082	4502.105	2099.288	504.8552	1511.194	929.2945	873.1414
746.2647	9247.031	4380.462	2087.459	490.188	1571.374	861.2737	862.3369
746.5905	9173.548	4311.296	2063.046	486.7001	1605.715	814.0382	871.1996
746.9161	9023.515	4210.797	1981.512	483.9519	1617.656	803.7109	906.9329
747.2418	8914.756	4041.033	1894.623	499.5324	1596.864	793.3818	918.3882
747.5675	8953.716	3986.578	1831.559	509.9233	1587.829	809.8382	898.6207
747.8931	9143.697	3912.74	1803.854	515.5928	1572.21	848.7219	863.6401
748.2188	9374.011	3829.705	1777.421	520.5666	1590.256	852.202	879.5899
748.5444	9476.921	3738.662	1728.439	524.3596	1603.253	775.8858	894.4576
748.8701	9411.941	3653.579	1698.382	521.3354	1654.851	711.6155	918.2534
749.1957	9136.669	3544.215	1681.341	521.2521	1655.981	732.5985	928.3818
749.5212	9016.71	3529.484	1646.163	540.6375	1658.125	810.9449	952.7579
749.8469	8919.472	3499.49	1609.55	555.245	1651.391	806.5558	978.6859
750.1724	8957.617	3420.234	1603.285	559.9566	1671.247	783.7789	1008.769
750.498	8834.928	3299.604	1607.293	555.8199	1660.741	816.6631	993.4557
750.8235	8826.824	3277.338	1625.116	572.8105	1670.001	926.5392	975.6418
751.149	8900.244	3192.424	1619.72	609.2805	1685.682	977.6894	982.2743
751.4745	9026.474	3153.844	1609.481	637.3214	1681.625	963.3353	1016.555
751.8	8916.645	3058.928	1547.412	637.2424	1666.661	925.2053	1027.152
752.1255	8886.701	2986.651	1527.249	640.3265	1698.287	934.304	1058.448
752.451	8924.162	2883.99	1504.833	656.4842	1707.353	1009.09	1078.891
752.7765	9015.051	2886.889	1498.402	635.1982	1678.791	1013.097	1077.879
753.1019	8918.492	2882.295	1501.042	606.6414	1618.787	941.8298	1057.68
753.4274	8687.245	2849.838	1507.208	612.7151	1605.729	902.1794	1058.349
753.7527	8408.014	2758.765	1495.108	654.9317	1617.117	938.541	1072.287
754.0782	8461.003	2691.577	1460.946	675.9668	1663.863	923.632	1091.715
754.4036	8669.45	2667.367	1424.538	670.4615	1682.434	903.425	1088.326
754.7289	8735.947	2654.173	1394.34	678.6251	1687.829	952.0433	1073.352
755.0543	8617.251	2618.868	1372.726	698.7448	1631.939	1042.382	1072.877
755.3796	8570.428	2558.498	1342.77	706.2745	1613.102	1078.65	1091.282
755.705	8503.89	2482.759	1316.669	725.754	1595.503	1045.574	1096.401
756.0303	8365.55	2447.916	1312.672	764.8938	1596.779	991.7964	1107.248
756.3556	8318.259	2442.533	1308.84	790.4816	1549.593	1033.136	1102.608
756.6809	8283.261	2489.401	1250.914	781.1791	1546.395	1106.927	1077.707
757.0062	8153.869	2449.67	1175.393	781.9899	1544.92	1121.679	1030.553
757.3314	8114.574	2448.858	1145.444	796.8096	1551.168	1053.641	1033.482
757.6567	8195.423	2401.512	1145.134	811.3527	1518.936	1060.66	1037.618
757.9819	8187.957	2417.032	1137.526	821.1825	1474.032	1111.993	1048.064
758.3072	7851.108	2364.652	1098.804	819.2175	1435.745	1136.435	1021.535
758.6324	7576.773	2401.257	1077.212	822.4742	1415.15	1109.092	1006.578
758.9576	7373.95	2453.76	1060.877	828.8009	1406.138	1077.147	946.6707
759.2828	7364.898	2562.343	1061.304	848.1186	1381.547	1047.117	907.5717
759.6079	7255.125	2596.534	1067.84	858.9496	1362.838	962.8828	912.5495
759.9331	7053.974	2581.49	1064.244	873.6375	1342.612	922.4762	939.7425
760.2582	6854.75	2495.629	1023.969	890.7309	1345.752	958.2059	916.0043
760.5834	6787.518	2461.134	1006.55	903.489	1377.056	990.1504	882.7766
760.9084	6629.211	2526.67	1030.495	918.0254	1405.005	962.769	867.8277
761.2336	6378.332	2689.853	1080.689	948.8193	1379.594	937.3444	880.2318
761.5587	6092.307	2770.25	1091.893	979.2784	1347.638	963.1782	855.1369
761.8837	5878.419	2835.22	1103.541	965.6274	1337.9	977.5238	825.6625
762.2088	5572.354	2902.498	1118.473	949.2663	1353.276	994.542	805.0951
762.5338	5429.501	2984.14	1126.854	961.1793	1341.983	956.2955	820.7336
762.8589	5241.143	3001.543	1083.874	975.0146	1332.382	898.3629	839.5536
763.1839	5108.495	3025.25	1069.25	993.4446	1321.058	898.0258	863.5876
763.5089	4829.622	3034.884	1083.09	1010.626	1306.629	970.1588	868.6363
763.8339	4693.356	3013.249	1112.204	1013.794	1285.107	1002.785	865.125
764.1589	4684.409	2917.172	1125.016	1005.076	1250.821	951.4951	865.264
764.4838	4697.061	2915.269	1155.024	1032.672	1226.801	887.5299	877.0616
764.8088	4528.566	2993.413	1155.768	1053.054	1230.624	901.7877	854.2494
765.1337	4408.83	3076.076	1185.861	1076.734	1250.295	917.303	837.3218
765.4586	4211.915	3094.366	1245.89	1116.507	1284.554	911.1429	826.1431
765.7836	4024.124	3176.226	1311.278	1148.098	1281.163	875.9562	844.3497
766.1085	3927.374	3226.326	1321.638	1137.163	1230.02	830.795	836.2713
766.4333	3960.882	3174.109	1376.974	1162.929	1190.715	786.6605	845.174
766.7582	3842.736	3096.617	1371.275	1187.087	1206.271	764.195	859.9453
767.0831	3746.726	3095.662	1361.321	1205.19	1238.373	788.4926	893.3784
767.4079	3718.834	3121.979	1358.78	1212.865	1214.282	817.4476	888.2491
767.7327	3705.082	3139.083	1416.605	1253.228	1193.556	857.0861	905.1731
768.0575	3651.791	3125.307	1417.596	1237.574	1200.933	887.54	918.0817
768.3823	3698.955	3099.018	1429.774	1236.165	1241.227	865.4965	924.8622
768.7071	3720.958	3047.25	1447.147	1235.307	1269.829	827.0291	908.2969
769.0319	3714.801	2981.319	1463.674	1225.494	1248.046	801.895	906.988
769.3566	3629.104	2837.817	1469.059	1184.109	1174.535	834.7543	880.8712
769.6814	3643.859	2783.339	1447.625	1174.216	1113.782	831.3995	860.4249
770.0061	3664.258	2804.26	1415.962	1182.155	1091.279	799.3386	853.4307
770.3308	3742.867	2885.043	1405.438	1185.991	1108.746	776.9621	860.954
770.6555	3778.197	2872.522	1403.154	1172.884	1089.526	777.5845	858.6458
770.9802	3738.098	2914.84	1422.476	1188.167	1087.808	822.25	869.2127
771.3049	3604.528	2965.99	1436.197	1211.65	1109.61	892.2861	892.2546
771.6295	3546.679	3007.594	1468.438	1259.49	1139.093	955.351	912.5929
771.9542	3534.165	2934.304	1452.508	1263.946	1117.734	923.9641	923.0528
772.2788	3543.297	2880.931	1491.626	1251.261	1093.5	856.209	915.5272
772.6035	3500.492	2850.095	1514.679	1255.589	1084.475	851.4648	897.7275
772.928	3413.939	2892.902	1549.044	1280.233	1069.477	878.0385	884.0646
773.2526	3307.791	2885.704	1528.774	1247.072	1040.015	835.4321	882.6546
773.5772	3382.79	2904.114	1541.146	1210.266	1047.991	782.2752	883.4188
773.9017	3491.948	2831.328	1539.094	1259.325	1071.769	801.9326	897.2638
774.2263	3545.384	2762.984	1542.857	1351.038	1079.255	886.3856	926.5485
774.5508	3428.394	2701.234	1518.488	1349.224	1052.714	896.9022	953.3441
774.8754	3339.679	2688.747	1509.193	1310.14	1025.914	858.9955	929.9872
775.1999	3299.448	2602.219	1504.357	1271.035	1024.119	807.9256	891.5461
775.5244	3348.42	2577.622	1500.543	1279.82	1033.501	832.3068	880.4675
775.8488	3259.485	2570.267	1512.709	1261.489	1045.815	825.5705	892.0288
776.1733	3182.867	2537.707	1524.87	1243.586	1005.226	800.1597	897.6285
776.4977	3206.584	2453.4	1554.658	1235.417	973.4077	776.8839	878.9806
776.8222	3305.468	2475.005	1563.672	1256.082	996.5669	827.0833	880.6299
777.1466	3237.011	2522.252	1556.031	1238.724	1016.382	850.4789	905.4526
777.471	3180.84	2495.475	1518.583	1239.334	1024.551	841.3185	942.8298
777.7954	3184.885	2374.32	1474.502	1230.992	1001.748	808.853	949.5256
778.1198	3243.154	2255.893	1455.359	1242.034	1004.639	803.9864	963.8779
778.4442	3234.12	2197.439	1453.437	1232.294	973.2791	766.8794	965.2194
778.7685	3310.483	2207.634	1475.551	1274.448	996.9789	752.5021	950.0143
779.0928	3337.922	2211.133	1463.255	1282.917	1000.911	758.292	914.4492
779.4172	3347.126	2204.528	1447.556	1275.076	1016.068	752.2836	929.3134
779.7415	3374.966	2145.453	1478.934	1227.2	998.4362	744.826	953.5784
780.0658	3412.287	2087.26	1572.41	1207.472	1029.812	817.386	973.9403
780.3901	3372.145	2017.304	1585.861	1206.54	1043.399	873.4953	963.2925
780.7144	3335.453	2003.211	1544.527	1242.909	1062.906	886.0964	954.3276
781.0386	3442.351	1980.896	1493.195	1222.441	1032.073	813.9265	934.1278
781.3629	3515.263	1945.464	1558.428	1197.101	1024.864	760.5811	952.6174
781.6871	3447.795	1865.844	1558.925	1182.18	1028.316	718.5677	965.5815
782.0113	3308.241	1850.532	1514.563	1212.978	1062.66	738.3369	986.3076
782.3354	3219.31	1828.381	1445.647	1215.811	1059.581	787.6919	969.7628
782.6597	3244.742	1762.529	1451.479	1192.724	1033.239	859.0889	964.8201
782.9838	3294.928	1685.335	1471.986	1170.391	1025.749	880.6642	935.9335
783.308	3363.219	1691.891	1506.507	1199.792	1078.475	831.0651	951.0115
783.6321	3313.742	1697.168	1549.227	1212.139	1097.496	822.8425	977.1542
783.9562	3323.473	1682.173	1546.473	1196.686	1110.513	864.8148	1008.186
784.2803	3395.716	1612.47	1516.65	1166.4	1133.601	872.7883	992.1316
784.6044	3409.776	1571.593	1525.825	1187.493	1147.157	835.3887	1002.618
784.9285	3310.657	1561.549	1567.465	1188.22	1132.242	866.1069	997.0636
785.2526	3281.192	1554.893	1600.223	1196.956	1120.916	913.0604	982.001
785.5767	3341.686	1469.673	1578.989	1185.923	1141.549	885.058	943.0004
785.9007	3341.837	1383.382	1604.549	1186.24	1154.921	828.9906	936.7516
786.2247	3357.608	1344.244	1642.283	1156.843	1176.095	806.8944	934.2482
786.5488	3420.78	1317.334	1678.548	1144.258	1156.302	772.1141	913.2301
786.8727	3465.259	1287.346	1650.323	1113.727	1141.207	706.0076	901.2933
787.1968	3458.849	1270.161	1664.513	1159.815	1162.323	713.2567	912.1838
787.5208	3449.033	1223.62	1652.2	1189.998	1201.183	747.9581	924.2742
787.8447	3434.358	1181.366	1656.348	1173.923	1211.431	795.9346	897.2247
788.1686	3418	1118.448	1632.327	1081.315	1193.017	795.1025	853.394
788.4926	3468.571	1072.965	1635.82	1098.276	1190.007	808.6557	856.0441
788.8165	3536.821	1018.14	1628.841	1158.958	1227.11	787.9353	891.4609
789.1404	3576.214	994.7947	1688.938	1202.091	1239.96	809.3173	909.3183
789.4643	3550.083	951.9675	1721.579	1158.226	1213.883	817.0016	905.6025
789.7881	3555.146	918.9146	1717.114	1110.226	1183.954	834.9987	884.4694
790.112	3585.259	879.5478	1656.25	1074.624	1184.234	810.3863	860.9803
790.4359	3657.029	847.1959	1625.53	1102.721	1198.189	801.189	835.1752
790.7597	3689.291	805.8606	1577.178	1122.744	1197.273	782.8928	829.9837
791.0835	3715.386	775.801	1515.971	1105.268	1178.542	793.2221	805.3246
791.4073	3748.393	754.6987	1450.024	1073.204	1155.659	806.3961	783.2717
791.7311	3844.996	732.3763	1409.365	1072.835	1151.027	812.7183	800.9268
792.0549	3855.683	702.4177	1379.297	1083.26	1117.953	763.0905	808.0036
792.3787	3828.777	699.4177	1389.363	1064.854	1077.587	696.5327	800.5704
792.7024	3746.487	695.0576	1380.446	1042.796	1071.279	642.5969	789.2973
793.0261	3847.15	674.1238	1341.66	1029.4	1073.016	659.4209	800.8262
793.3499	3895.201	653.9768	1265.368	1049.391	1032.145	697.1376	795.4713
793.6735	3902.981	678.3614	1239.274	1084.401	1002.009	727.9877	808.6252
793.9973	3795.922	704.7286	1196.541	1097.022	981.7361	733.9982	804.5311
794.3209	3713.724	699.2054	1159.696	1107.805	981.3325	767.7853	782.8369
794.6446	3558.754	700.212	1137.275	1101.551	971.4066	765.8621	761.0787
794.9682	3479.838	704.5073	1141.826	1101.106	990.596	728.4387	769.4093
795.2919	3559.054	688.9164	1131.555	1080.807	989.1151	710.1667	756.5013
795.6155	3730.793	668.6475	1154.526	1122.578	981.4164	755.0142	731.366
795.9391	3776.731	654.6738	1179.677	1171.963	972.2169	798.894	685.3414
796.2627	3733.837	649.9879	1213.252	1228.818	981.7182	790.6183	638.5391
796.5862	3689.592	622.7273	1203.057	1225.199	1011.61	748.978	594.7018
796.9099	3721.134	583.3918	1240.627	1220.455	1065.894	672.8158	576.1274
797.2334	3657.274	540.762	1267.184	1203.019	1124.406	592.8323	561.6924
797.5569	3567.524	520.6751	1310.449	1221.13	1151.495	556.1038	547.0479
797.8804	3564.469	513.0238	1336.683	1235.993	1156.837	572.7163	530.6973
798.2039	3646.216	501.6494	1388.705	1249.65	1168.559	601.7504	527.5999
798.5274	3644.766	495.7735	1386.083	1209.655	1168.946	588.9258	524.6528
798.8509	3683.811	492.3281	1345.73	1221.143	1176.091	592.7701	521.3611
799.1744	3644.243	488.8069	1295.747	1285.292	1156.282	594.7361	497.947
799.4978	3600.178	491.1885	1285.975	1361.386	1109.027	617.9742	490.5171
799.8212	3512.813	523.293	1266.614	1375.396	1043.964	596.1316	498.9201
800.1447	3614.847	568.4089	1272.91	1402.829	1015.609	550.2102	514.4656
800.4681	3707.131	614.064	1312.046	1431.135	1010.426	520.6189	508.7013
800.7915	3872.49	641.1578	1347.809	1468.464	1003.028	522.8192	499.4503
801.1149	4015.073	672.915	1325	1430.093	986.6152	506.2614	502.6838
801.4382	4052.007	695.9509	1273.47	1352.595	965.0394	475.5968	478.1826
801.7616	3902.816	728.1158	1194.319	1278.43	922.6343	475.6883	446.8896
802.0849	3691.464	762.1907	1129.069	1269.491	881.7561	481.9501	424.9684
802.4082	3522.006	775.3942	1092.942	1266.809	851.7618	475.2383	430.3919
802.7316	3465.242	783.499	1081.232	1293.342	855.5483	470.0817	429.6492
803.0548	3423.666	805.9955	1064.54	1354.023	855.4778	457.5212	441.5002
803.3781	3465.683	821.8453	1108.765	1431.578	891.3257	450.3682	467.0873
803.7014	3531.629	841.4841	1187.973	1481.596	916.8853	440.2016	489.143
804.0246	3602.334	865.1422	1216.362	1465.957	912.5148	414.6824	497.1816
804.3478	3612.708	883.5482	1168.372	1390.866	867.0778	372.5126	488.5547
804.6711	3684.352	897.9041	1118.682	1351.254	833.615	382.6456	473.7191
804.9943	3628.345	964.3323	1075.086	1322.957	796.8605	421.029	464.6559
805.3175	3454.004	1033.812	1054.282	1286.626	765.6479	439.0105	454.448
805.6407	3243.147	1019.948	1071.773	1221.557	741.4434	407.6121	444.3054
805.9638	3143.269	940.2784	1107.396	1148.468	743.3713	365.804	437.3243
806.287	2986.03	872.3399	1096.757	1029.729	753.627	345.8547	429.7998
806.6101	2866.802	847.847	1064.712	947.2658	742.8588	382.515	412.9302
806.9332	2722.547	810.9985	1063.831	917.8231	710.8152	416.793	399.3415
807.2563	2680.674	795.7957	1083.474	916.5933	695.1984	448.0161	409.7766
807.5795	2622.476	827.2983	1038.638	883.1218	694.5455	458.5857	405.4456
807.9025	2502.772	893.6381	1037.177	841.8197	686.9647	503.4131	401.8945
808.2256	2263.433	955.6563	1079.639	780.9749	666.3215	531.8592	392.1094
808.5486	2087.236	1033.832	1134.424	759.3054	654.14	540.3621	384.7065
808.8716	1981.184	1089.341	1085.869	720.3444	652.3142	524.2958	357.2205
809.1947	1897.65	1132.83	1048.273	682.2829	648.9045	544.0781	344.8929
809.5177	1805.998	1187.334	1035.251	634.8547	635.4001	570.0723	337.7039
809.8407	1710.01	1315.429	1045.611	618.5139	633.3484	572.548	354.9124
810.1637	1600.317	1448.178	1061.414	609.9257	636.3897	558.4065	352.7653
810.4866	1502.021	1578.561	1116.852	605.6362	632.9523	607.0069	343.2261
810.8096	1416.395	1676.869	1209.46	595.1813	624.0261	647.0432	327.0612
811.1325	1414.731	1770.57	1304.823	577.4716	628.6526	644.0519	320.4801
811.4554	1425.523	1872.261	1351.777	563.631	618.4766	637.5265	314.7597
811.7783	1431.109	2045.498	1354.623	543.4316	620.2161	718.8416	321.8239
812.1013	1372.501	2232.11	1353.108	545.6537	633.2185	776.0132	334.8439
812.4241	1367.274	2392.733	1379.267	578.8964	651.7183	833.3094	330.2359
812.747	1403.432	2481.652	1435.953	585.6154	651.4667	885.7662	325.2935
813.0698	1524.445	2580.399	1499.503	552.1569	648.7797	893.0148	329.6735
813.3926	1640.311	2682.346	1536.138	527.6753	648.2534	808.9141	324.4569
813.7155	1743.915	2821.518	1549.991	542.215	658.0234	776.941	317.4423
814.0383	1837.505	2980.519	1568.132	560.6939	665.9828	786.0838	308.4238
814.3611	1986.024	3139.546	1591.441	556.3157	679.0352	816.8427	321.2535
814.6838	2146.728	3195.347	1597.255	534.7959	690.93	846.8519	335.7435
815.0067	2327.755	3214.37	1579.067	526.9822	692.3463	882.2654	336.6689
815.3293	2486.118	3212.446	1538.396	521.0914	660.9048	828.637	334.1281
815.6521	2636.448	3227.741	1513.975	506.0197	626.39	809.8932	340.2801
815.9749	2778.995	3152.587	1462.012	499.4079	592.2966	821.1007	350.4956
816.2975	3001.247	3093.767	1388.557	515.041	566.2086	847.4195	332.3935
816.6202	3175.373	3075.62	1322.243	508.9265	557.4391	779.5554	313.8115
816.9429	3359.042	3136.247	1300.573	489.2164	561.5266	773.8883	308.722
817.2656	3438.779	3134.951	1248.621	466.4714	547.7116	780.8973	304.067
817.5882	3462.488	3049.195	1170.466	490.8306	510.3209	805.9363	309.7904
817.9108	3431.741	2954.139	1114.516	493.4522	479.9872	734.7711	323.2949
818.2335	3540.382	2869.064	1095.564	502.5301	446.5513	679.6415	336.3697
818.5561	3696.245	2773.904	1051.52	484.6002	414.4972	615.3402	330.4889
818.8787	3881.833	2710.227	992.7998	495.3907	393.3412	594.0082	326.9239
819.2012	3902.097	2646.087	913.3959	470.8195	366.1124	547.8389	318.7538
819.5238	3794.901	2530.182	835.5857	464.8654	342.4835	514.6103	306.8788
819.8463	3697.939	2359.92	750.1483	466.9652	323.9759	488.1432	312.8742
820.1689	3746.003	2254.954	690.1769	505.9253	317.7415	476.9256	338.0237
820.4914	3765.463	2168.27	639.9645	499.3237	283.4875	441.4448	341.6955
820.8139	3764.038	2102.129	586.598	498.9333	257.4428	405.2079	323.4449
821.1364	3695.074	1997.811	542.9073	496.7695	248.2426	388.0804	307.3817
821.4589	3687.845	1891.968	506.9006	519.7422	248.3961	390.7297	304.5239
821.7813	3673.264	1789.439	483.0622	513.3348	234.8525	384.5883	300.1421
822.1038	3567.315	1717.22	445.2425	520.672	226.1694	359.8141	304.1313
822.4262	3279.545	1657.672	409.8561	524.1726	217.3236	347.9932	327.6846
822.7486	3096.888	1622.217	376.3024	534.2889	211.4189	319.167	358.8243
823.071	3107.128	1570.548	350.9172	549.9092	198.7537	306.3636	366.026
823.3934	3109.704	1480.648	321.8097	572.5627	199.8561	282.3927	350.977
823.7158	2995.563	1396.884	303.809	579.4557	200.8517	279.6507	340.5743
824.0381	2913.238	1381.113	288.6172	588.2691	202.7873	266.0828	341.1583
824.3605	2888.431	1339.652	275.1597	618.882	199.2822	262.6988	337.8691
824.6828	2835.958	1286.644	260.6569	630.9547	207.8806	244.0462	341.3416
825.0051	2690.282	1205.411	248.1486	616.3707	207.2726	220.5204	340.3585
825.3274	2664.031	1188.445	261.5003	584.16	200.3902	190.5193	348.713
825.6497	2650.869	1156.24	264.1859	597.0612	185.8267	161.9529	327.985
825.972	2602.147	1139.632	262.2566	614.1215	196.3168	151.625	321.1016
826.2943	2460.508	1091.037	243.791	610.4717	199.1335	143.696	309.3794
826.6165	2394.464	1073.311	250.9437	620.2019	195.2915	134.6064	314.2126
826.9387	2337.163	1051.559	250.5724	625.2164	183.1953	130.3255	301.01
827.2609	2280.193	1023.767	252.6774	637.7867	182.7035	135.4897	294.691
827.5831	2153.625	995.4286	240.5991	602.2551	185.3503	127.7899	290.7227
827.9053	2056.428	984.1783	253.8985	607.3102	189.375	111.4093	280.7
828.2275	2008.597	991.0724	271.2016	589.8248	195.1331	110.1885	283.7229
828.5496	1986.646	980.3544	277.9196	605.9014	203.2985	102.9558	293.9091
828.8718	1920.896	959.4747	280.9563	595.9489	210.3301	109.3252	282.7567
829.1938	1878.253	952.4214	290.5371	583.0058	210.211	102.2673	255.8691
829.516	1873.609	956.412	303.7969	564.2425	194.6468	108.3641	251.7278
829.8381	1862.498	973.1937	298.1346	567.8799	181.8476	108.107	258.2433
830.1602	1802.612	953.8972	298.8274	572.7313	191.5053	123.377	243.3012
830.4822	1732.993	930.7761	298.4861	587.4496	212.0763	114.8549	223.6543
830.8043	1695.764	920.594	303.4852	586.1768	216.5241	108.1466	220.1215
831.1263	1688.989	921.5217	312.2662	564.48	217.4402	110.6818	208.1386
831.4484	1640.824	901.166	323.7724	534.4187	222.0704	102.162	204.1423
831.7703	1567.2	891.6824	341.3458	522.757	221.8476	94.1353	207.8537
832.0923	1510.421	914.356	330.024	521.8122	212.9759	92.30794	216.4033
832.4143	1486.903	939.6926	329.0757	528.5908	215.6824	101.6098	197.2557
832.7363	1426.017	953.9861	323.7827	533.2759	214.799	99.18372	188.1219
833.0582	1390.353	964.0731	334.8824	510.075	225.5897	102.7738	181.9624
833.3802	1387.677	965.218	331.2221	494.0237	230.565	124.104	170.4993
833.7021	1397.246	991.1851	336.2646	485.9053	236.7234	116.7387	148.0726
834.024	1341.008	996.8034	342.566	497.954	236.1382	110.8708	150.9396
834.3459	1287.902	1011.761	348.3775	498.8544	236.9848	116.1037	157.7231
834.6678	1252.555	1013.985	352.4783	503.2124	229.9574	128.2188	151.5008
834.9896	1235.393	1029.081	352.5811	499.2404	224.6854	113.3433	134.067
835.3115	1201.692	1048.854	364.1982	499.4553	236.3029	112.5498	135.9986
835.6333	1171.27	1078.815	356.9178	486.93	238.9556	124.79	144.7088
835.9551	1124.012	1062.188	347.8824	492.9712	247.4183	117.158	138.2479
836.2769	1087.991	1043.882	338.2008	511.8015	244.0742	116.7049	123.2035
836.5987	1059.619	1040.336	345.2262	507.4485	240.9794	136.7122	124.0034
836.9205	1029.826	1056.551	353.0899	477.8927	223.4852	149.9123	134.8197
837.2422	1002.313	1047.856	363.6575	463.4256	226.6763	139.9808	138.5313
837.564	1010.764	1057.628	354.7818	465.5544	245.9554	135.5836	128.9373
837.8857	1055.085	1070.809	332.5047	452.0909	271.5094	133.4283	121.364
838.2075	1056.244	1128.601	321.8093	450.6638	268.0484	142.8319	115.7592
838.5292	999.6723	1175.936	320.5588	442.703	249.2639	137.075	122.9639
838.8508	941.0723	1200.068	314.2512	437.9489	231.6326	138.5713	126.215
839.1725	908.1196	1168.08	309.1389	428.7196	233.068	128.6248	124.1141
839.4941	906.6226	1167.501	323.077	432.2108	237.4474	131.6134	116.7904
839.8158	896.9677	1181.389	323.9295	432.1081	238.8985	131.2338	117.0583
840.1375	888.6047	1211.651	319.7472	438.3097	238.6728	127.0633	116.0736
840.459	846.6342	1207.17	319.9514	443.1927	230.3155	138.1396	120.6469
840.7806	798.0078	1197.187	326.8369	425.986	231.743	136.5883	118.4249
841.1022	756.4435	1172.345	331.4545	402.9618	229.3524	133.654	119.9558
841.4238	735.7565	1198.434	331.1048	393.1891	225.9576	117.4285	117.7564
841.7454	739.4368	1233.991	317.1696	411.0414	212.9299	117.5101	120.0038
842.0669	744.9413	1249.924	303.3589	417.957	218.5231	121.302	125.1007
842.3884	723.7495	1251.522	306.2371	422.7323	230.0428	109.1164	131.0966
842.7099	693.7687	1258.162	310.78	418.1739	238.4594	114.6336	120.5634
843.0314	670.6145	1232.575	296.7418	407.6153	240.7294	115.432	106.4617
843.3529	677.7114	1234.671	298.8082	397.8217	236.5904	122.5892	98.50273
843.6744	673.629	1285.175	297.3462	397.222	216.1894	107.719	109.0647
843.9958	671.2316	1281.513	306.5749	392.02	201.8431	98.43143	105.1809
844.3173	643.8384	1227.667	316.4038	377.2275	209.6476	95.24861	108.7116
844.6387	593.2548	1186.939	324.0311	373.0161	224.7716	101.6972	99.48696
844.9601	550.5006	1173.854	313.4598	387.3026	226.0252	110.9064	103.3549
845.2815	539.686	1180.998	296.9906	387.5103	222.402	111.2628	96.50529
845.6028	562.8265	1209.018	306.1372	365.1042	225.0565	98.95453	100.7005
845.9242	578.4365	1234.088	321.0901	347.681	234.2768	90.60629	103.5526
846.2455	568.1711	1202.672	333.8838	355.7971	237.9969	97.64648	102.1087
846.5669	539.2539	1181.434	335.6407	364.0856	255.7296	115.2848	98.1372
846.8882	517.8495	1188.927	321.1002	343.5242	255.6572	111.4655	99.9827
847.2095	521.7314	1213.929	321.2655	350.2424	254.6951	110.9219	108.3634
847.5308	518.8756	1191.361	326.5639	365.0386	242.6931	112.4925	111.3653
847.8521	503.6741	1133.438	351.474	374.3926	237.0788	105.1344	114.8074
848.1733	480.4246	1124.222	350.3028	345.1592	230.7421	98.23287	110.4279
848.4946	463.235	1165.653	335.1257	329.8563	232.5798	100.7746	99.76583
848.8158	451.2773	1211.712	309.2607	325.3516	247.118	111.774	94.04812
849.137	454.204	1218.321	317.4215	325.5075	264.0062	115.2236	91.30323
849.4582	450.7901	1204.678	346.954	319.6395	265.3825	124.1425	96.52754
849.7794	436.6037	1160.264	350.0486	327.4261	257.4653	123.2521	95.00721
850.1006	422.0689	1110.734	342.7401	341.9567	258.2226	120.4241	99.71626
850.4218	428.7424	1099.339	357.3516	327.0671	273.8086	104.4169	91.87244
850.7429	438.9397	1099.342	375.6147	312.8466	273.821	94.3344	93.41296
851.064	432.3603	1114.575	375.2305	311.4505	263.5874	101.0417	85.57539
851.3851	416.9118	1114.969	362.1263	316.2897	255.53	118.9837	90.84531
851.7062	380.3232	1101.158	353.669	311.2764	260.3148	135.5582	84.48284
852.0273	342.3887	1066.752	354.0867	292.158	259.5175	128.4933	78.8205
852.3483	321.6994	1059.326	373.6372	276.7348	266.4782	120.1927	67.45394
852.6694	333.9868	1042.601	385.2202	273.6654	265.5925	106.3487	79.8712
852.9904	348.5909	1031.271	374.7709	283.3727	283.9169	103.0254	87.81503
853.3115	352.4138	1026.311	381.6927	278.3256	284.5718	105.2501	89.36321
853.6324	352.1213	1025.989	391.8811	272.7694	293.4909	113.0116	72.34677
853.9534	336.0284	1001.639	403.5482	267.4771	284.3994	98.69703	80.39814
854.2744	325.1464	963.7534	395.5274	260.1798	286.4289	83.87911	85.74842
854.5954	321.0108	934.7995	396.1322	257.9759	280.8253	91.58748	91.38868
854.9163	327.1466	909.0031	404.7005	266.1378	287.8503	120.8353	77.68265
855.2372	315.7101	914.5914	431.5037	261.225	287.6011	118.2946	83.54751
855.5582	293.4855	947.0997	453.2493	249.0056	289.0269	108.0187	91.38036
855.8791	288.1375	962.5709	456.3641	239.8571	289.1022	108.4643	102.5622
856.2	296.3477	926.4694	461.5512	245.5011	296.9492	126.2961	102.4686
856.5209	311.974	882.0978	466.2427	272.6594	305.0473	125.5245	100.2619
856.8417	302.0019	871.7508	455.7525	286.8869	302.7497	113.0884	91.87205
857.1625	277.9041	861.1857	441.956	270.5616	296.8955	104.1074	91.22403
857.4834	247.6757	851.2311	456.6069	238.5328	279.9818	95.50535	89.47885
857.8042	257.1268	839.3941	488.1723	222.0028	287.2087	93.16585	85.46358
858.125	270.2509	828.873	492.0987	223.8488	284.0344	104.8019	87.81662
858.4458	265.8457	809.3067	496.4433	223.8627	292.6144	111.5403	105.4177
858.7665	242.4606	794.4852	494.4032	219.677	298.5197	110.6668	116.0089
859.0873	242.1438	772.3524	496.1209	212.7996	298.8464	112.3	119.2359
859.408	234.3641	779.7133	501.0882	215.4701	283.0268	111.5972	108.1576
859.7288	235.2521	762.5934	520.9203	213.1623	277.6681	103.6537	110.5025
860.0494	240.2195	737.9832	532.7493	215.4799	296.292	104.0524	112.8455
860.3702	241.4697	715.5845	527.1065	197.3585	291.16	113.7522	130.4263
860.6909	225.8563	739.159	520.4951	169.9143	288.5011	109.3398	122.9155
861.0115	221.9169	732.9396	533.5634	163.7931	292.8304	111.316	118.745
861.3322	227.3222	701.114	556.08	184.843	298.0905	132.6017	107.9917
861.6528	226.7869	695.5594	554.1802	193.3897	288.5887	140.3208	118.4156
861.9734	225.2651	717.5027	530.013	174.2852	277.8962	134.2851	118.8754
862.294	225.8525	725.2005	527.2948	167.4615	277.822	126.6564	120.0893
862.6146	220.2623	690.9049	555.3723	170.5491	273.8159	113.444	122.9201
862.9352	215.8198	670.4963	574.201	187.722	283.7577	116.3493	140.2982
863.2557	207.5536	641.4519	560.6548	176.4321	289.3417	132.8963	140.2462
863.5763	204.5969	633.4877	513.7545	161.8102	292.4369	148.2414	137.5655
863.8968	201.9117	621.1107	531.0262	163.7348	293.8895	142.2147	128.1372
864.2173	197.2628	610.6704	586.3032	174.9158	300.6752	154.7959	132.4347
864.5378	184.9436	594.2163	650.4429	178.3438	290.262	164.8415	142.8492
864.8583	186.1719	591.1799	664.6796	168.4837	279.6426	154.2528	164.9747
865.1788	178.4347	596.0677	651.9415	167.4568	286.9073	144.3989	172.535
865.4992	176.5449	578.8363	625.2448	162.9448	297.2736	154.0184	170.356
865.8196	164.0916	578.3212	631.7404	163.4128	290.1555	162.8283	168.5979
866.1401	181.0648	576.395	639.7076	163.1769	273.8672	175.1109	161.2226
866.4605	174.8296	582.1627	620.5452	161.4786	262.3652	161.729	160.4389
866.7809	177.8765	580.3514	587.5341	152.978	255.4337	151.8629	167.0839
867.1013	152.9383	575.0115	596.9128	146.8059	242.309	134.9738	182.6956
867.4216	163.9354	555.77	631.6854	156.2672	237.8402	147.6472	179.7654
867.7419	170.0728	551.1072	678.7159	161.2333	238.1011	154.3373	180.2229
868.0623	171.7742	549.5549	681.8497	150.1219	240.4832	172.5769	178.9833
868.3826	154.6	547.8826	671.9358	142.7992	239.4186	192.6171	188.5284
868.7029	141.6618	529.4202	658.8906	147.3652	247.0366	204.214	193.1803
869.0232	141.3522	522.7491	661.1197	145.0033	251.3244	194.8183	192.2943
869.3435	139.0668	493.351	664.9589	139.1497	231.4032	187.4465	177.7785
869.6638	139.6441	484.6905	690.0232	136.7278	215.4358	191.4797	177.6671
869.984	139.975	466.1644	701.5377	141.4048	224.5405	200.6178	200.294
870.3042	136.363	463.2224	700.5764	139.5671	229.0273	188.8953	209.0514
870.6245	132.4059	451.8887	690.8151	137.858	220.0679	179.6584	199.5937
870.9446	135.5388	464.0064	682.9483	131.6093	202.0161	181.6398	190.992
871.2648	134.6749	461.2762	674.2148	124.7858	193.0181	186.324	192.882
871.585	132.1103	441.8177	662.7798	126.3476	189.8848	200.0465	190.865
871.9052	135.2252	414.7316	671.5933	138.5205	193.9575	200.1142	189.682
872.2253	128.9539	402.253	677.5499	141.669	193.2571	193.4502	195.1204
872.5454	100.314	412.2781	672.0852	129.5184	184.9013	175.2784	197.9545
872.8655	82.88705	420.7235	657.8158	109.2449	190.4241	187.4617	202.0877
873.1856	99.5131	414.9659	657.5861	104.0828	184.3712	197.8339	203.5938
873.5057	109.8323	414.5669	666.275	104.0455	182.0881	192.7709	197.8173
873.8257	110.2636	421.0884	671.3941	108.515	173.5726	175.1673	202.9709
874.1458	97.883	413.2997	675.7341	121.2983	171.7347	176.8501	210.4095
874.4658	95.73845	399.8913	658.7277	130.8842	157.613	181.7052	207.0428
874.7858	93.15664	384.287	628.4784	125.6433	151.199	190.9906	207.0582
875.1058	79.64847	367.8846	609.4565	117.5329	154.1157	197.9309	203.8489
875.4258	67.98122	347.3582	624.9775	123.5391	148.118	192.2576	208.5185
875.7458	73.58858	348.2592	631.2443	140.0903	143.9767	197.9348	201.344
876.0657	92.64095	340.7629	643.4442	139.9542	147.3483	204.6336	217.6259
876.3857	90.38088	329.88	660.5527	134.9225	156.807	205.5207	225.4471
876.7056	78.93948	311.9245	677.1943	120.495	151.9518	199.2699	232.411
877.0255	80.43668	304.4855	667.6035	133.4533	144.8617	210.8067	219.9005
877.3454	80.44177	310.4902	652.6373	142.3568	142.1313	217.1411	211.5606
877.6653	84.52169	324.683	656.1487	156.6458	121.3101	205.3674	211.1328
877.9852	86.5203	323.7604	661.8796	158.2396	109.8152	212.8011	213.6084
878.305	89.98502	323.9456	658.5932	165.6521	115.9498	226.6572	220.9732
878.6249	85.18334	320.669	641.958	167.0705	115.8499	220.233	219.9911
878.9447	73.52484	318.7181	614.2048	144.2318	103.0267	190.826	208.5138
879.2645	68.58354	303.6936	593.3718	138.2949	95.42397	183.5655	202.691
879.5843	64.92184	306.8654	565.2813	149.5423	97.69627	197.2631	219.7866
879.9041	68.31024	308.1909	597.3008	161.1129	93.73402	209.9794	226.4305
880.2238	66.99335	294.8709	631.3864	159.4565	88.09286	214.672	227.4719
880.5435	61.68447	275.3643	652.2522	163.8374	93.66337	210.3511	232.1067
880.8633	51.48881	270.3244	636.7784	166.1927	93.34751	194.7503	236.1041
881.183	44.19761	280.8116	620.4132	159.3761	98.47827	179.7448	220.803
881.5027	52.67368	266.8346	590.1363	164.2562	102.7755	186.2653	209.3383
881.8224	57.96217	264.9992	572.1725	173.3205	104.9842	196.5752	203.002
882.142	55.3377	265.9758	588.0206	171.251	88.24809	196.0994	202.7715
882.4617	46.49322	265.7347	572.1812	168.0324	80.36304	179.334	201.444
882.7813	42.58607	253.7014	556.0041	171.6826	84.37029	179.1542	213.354
883.101	40.20633	243.5775	544.1258	172.61	87.90218	184.6432	226.5258
883.4205	40.92736	234.1812	549.0376	175.3985	74.62798	185.0328	222.0621
883.7402	42.60264	235.7901	541.3623	176.2358	68.19808	177.2281	214.9537
884.0598	43.55282	248.6602	549.4138	188.8134	62.32817	180.4922	205.3953
884.3793	41.21029	246.9324	510.6844	187.2636	60.97949	170.6998	215.7923
884.6989	34.15831	237.8206	472.4817	185.9346	66.70566	152.2533	214.815
885.0184	26.22189	231.024	468.0958	201.3547	70.72458	156.6033	207.3244
885.3379	21.7413	230.4743	505.037	203.8075	69.71739	174.3475	198.6203
885.6574	27.91109	226.5443	506.5847	207.8043	61.13167	177.5484	205.7218
885.9769	27.46485	223.0931	501.1334	209.5343	68.41454	162.6827	205.9328
886.2963	22.92247	216.1177	507.0431	210.7865	63.78307	161.3594	199.6637
886.6158	20.72761	207.8883	506.5631	212.2435	65.98826	167.8784	197.4825
886.9352	25.32303	214.8589	497.6957	194.1059	60.83465	155.3307	199.8634
887.2546	38.21206	202.4974	484.8584	199.6203	70.856	150.2393	194.9729
887.574	26.2256	203.4611	509.3099	191.8514	66.55337	137.883	195.8912
887.8934	26.53677	198.2938	511.1609	217.0758	63.38078	143.8617	182.9285
888.2128	19.34644	206.7869	476.8911	220.1716	55.81126	145.0015	172.7621
888.5322	27.1415	199.3516	434.5921	230.3187	58.0327	149.4955	172.8701
888.8516	22.60439	197.2857	440.127	232.4901	58.01864	142.6014	185.1861
889.1709	35.26818	186.9063	460.5019	235.835	55.30538	127.5019	185.9369
889.4902	42.14148	176.7296	458.0397	239.9682	60.06421	122.1532	184.6696
889.8095	37.96288	181.0642	445.3711	241.4814	64.47491	122.8824	183.1553
890.1288	25.5381	175.4561	439.4618	240.097	67.18534	131.8957	186.4398
890.4481	23.89901	168.1083	445.2026	242.6425	66.26282	127.5944	189.2436
890.7673	26.51524	167.885	458.1337	248.0289	62.47388	133.217	187.17
891.0865	19.37704	168.0871	469.3943	271.6344	61.68311	139.2789	176.5784
891.4058	13.10449	158.854	458.567	280.7443	62.03827	138.4191	165.339
891.725	13.83511	153.2185	436.7419	278.942	61.985	130.4401	168.0274
892.0442	13.40966	152.7925	410.4943	248.5295	56.3999	120.791	174.4389
892.3633	3.18628	158.8031	401.153	224.8026	67.64143	111.4091	179.9268
892.6826	6.695465	153.7574	400.7137	207.3492	69.00562	96.47277	172.6474
893.0016	12.95212	148.4943	407.146	228.7025	70.09528	107.2069	167.2969
893.3208	2.264122	144.9308	405.4339	241.6758	70.62431	103.2178	152.8804
893.64	-4.931292	144.6127	397.6011	259.6024	72.94506	108.4262	140.4855
893.959	0.2949486	139.2843	401.4301	250.1694	56.93431	103.443	140.7467
894.2781	24.52068	130.5412	408.0221	251.4991	52.39403	107.8153	150.0034
894.5972	14.45804	130.1994	422.2388	249.612	58.14548	110.5343	161.8484
894.9163	10.17239	117.682	423.4153	262.4663	73.437	118.034	164.3215
895.2353	7.441565	116.4526	410.5094	261.5003	80.39935	117.3404	151.9167
895.5543	18.93114	120.7622	385.6041	244.9538	82.24579	97.84588	138.4088
895.8734	14.87776	130.2544	368.7086	242.6074	78.79978	98.07661	126.5802
896.1923	12.02551	127.6962	357.3399	246.6782	77.79926	102.6623	132.392
896.5113	8.71172	112.0096	351.1943	267.1309	77.58488	109.6718	129.6901
896.8303	12.3689	114.8208	341.9987	281.6361	82.1618	91.27894	140.6296
897.1492	6.22424	114.0043	330.7852	293.3998	86.09701	72.00405	140.811
897.4681	4.642353	119.3795	323.7804	284.0274	72.59409	62.07293	137.4877
897.787	7.718987	111.0827	322.6007	269.7797	63.74555	79.63124	124.1987
898.106	13.95169	110.8674	335.6267	258.2208	75.61343	91.3119	125.0647
898.4249	11.36392	112.9162	333.0825	263.5521	95.16174	89.86858	117.7108
898.7437	5.649856	114.9142	336.9934	258.3351	95.37998	90.80724	117.7699
899.0626	3.323436	106.8332	343.7408	266.1834	88.44986	93.45472	117.3266
899.3814	13.27454	101.5773	361.0543	270.4691	92.89942	97.1055	120.3276
899.7003	3.527785	115.5286	365.3232	270.8072	109.7978	73.37595	101.786
900.019	-1.236025	114.3168	336.277	261.4231	115.1331	65.83691	102.5475
900.3378	7.1072	102.3062	306.9471	256.1069	102.4014	67.06515	102.6975
900.6566	31.53904	87.02117	294.6351	250.4581	90.67821	84.02447	108.0925
900.9754	18.14674	77.29426	311.318	236.6972	94.80205	73.8138	96.99438
901.2941	6.955695	67.39999	305.6472	246.8987	96.34709	67.78205	96.5013
901.6129	7.118958	74.5696	298.4281	246.8016	94.99188	75.13737	86.74831
901.9316	11.89014	85.39568	284.0232	250.4634	95.13758	83.98523	98.97368
902.2503	2.647877	94.46915	260.3507	244.9736	97.95296	71.47637	100.6713
902.569	5.433825	93.8623	249.7501	258.2903	94.68259	62.73813	107.0576
902.8876	16.39852	95.31973	268.8934	252.8101	100.3223	53.85113	98.56661
903.2063	22.80095	89.62154	281.4089	267.8301	107.4717	64.96716	98.84332
903.525	5.872915	81.40135	287.0148	263.3188	109.3858	62.39206	79.63296
903.8436	2.885945	81.2285	281.2588	252.3299	108.1572	73.52356	72.15213
904.1622	-3.593825	76.53706	281.3654	234.5623	110.039	72.0071	78.57571
904.4808	-4.12015	74.95249	269.517	241.6891	115.2256	77.23866	85.86693
904.7994	4.433017	63.99995	263.6943	249.09	113.7402	64.00475	76.08792
905.1179	11.56132	66.56125	251.1662	240.6216	114.0799	49.76347	57.21302
905.4365	6.7399	61.20884	248.6671	237.035	109.1225	43.12455	48.95196
905.755	6.249593	69.52927	236.1366	239.0813	114.0976	52.13938	53.19577
906.0735	15.85715	63.81986	225.2102	239.4253	120.3259	57.3903	64.17065
906.392	-1.020319	75.82294	227.0161	226.9122	136.3911	59.04256	67.20225
906.7105	-9.035048	66.57917	227.7929	227.235	134.0499	48.10716	62.31553
907.029	1.891416	61.21401	229.3088	245.2479	125.336	56.36591	64.86366
907.3474	19.61096	51.50183	225.1982	243.5477	118.1242	55.06739	70.19287
907.6659	13.02451	60.6835	219.6887	222.7715	124.491	65.23884	71.99212
907.9843	8.538077	55.60472	207.6445	214.0165	126.6765	49.89357	58.31775
908.3027	1.388875	52.93099	210.0401	234.5989	125.1146	62.17124	47.79504
908.6211	11.7502	55.70136	205.1943	243.0558	111.4062	60.02557	39.52761
908.9395	15.35606	60.03134	202.0507	237.7348	117.839	68.44942	52.73951
909.2578	11.18706	50.59575	200.9319	231.6302	137.8653	60.01768	63.82933
909.5762	1.348775	43.75938	204.3532	239.6829	150.9399	64.39555	65.59711
909.8945	-2.106275	47.23048	211.7343	239.7555	142.8916	62.35946	49.93939
910.2128	2.004107	50.53652	201.854	240.5428	140.4592	63.30555	54.25373
910.5311	1.56454	43.13328	185.6878	232.572	132.597	60.23563	60.58458
910.8494	5.024152	41.46781	179.7272	243.2661	128.5345	55.83616	57.93692
911.1677	3.505938	43.0436	189.0619	244.1618	130.9047	51.80753	51.60928
911.486	-1.874632	44.55209	182.6876	245.8091	145.6152	55.2082	54.94319
911.8042	-3.248169	44.83832	169.2897	234.3335	135.7667	52.96988	49.11536
912.1224	2.808452	48.81881	170.0007	234.3258	127.5478	49.15377	49.5877
912.4406	13.77032	53.06281	174.653	232.6841	130.8384	44.9198	49.23415
912.7588	7.0731	57.61912	169.3599	229.0477	149.9789	50.51904	55.69493
913.077	8.525513	40.64407	167.016	232.3782	152.7533	56.38603	56.06926
913.3951	9.765729	29.65288	164.512	225.4474	151.7306	58.22406	55.97283
913.7133	15.4318	31.28072	165.3869	217.2832	145.0225	58.2725	44.93605
914.0314	9.671971	37.84001	163.4046	201.5107	144.9274	51.70126	57.43359
914.3495	8.49566	27.89041	170.8853	195.1205	151.3798	44.24186	59.73667
914.6676	2.006199	26.7791	165.4698	189.7873	161.9852	43.25842	58.91709
914.9857	-10.01894	30.62497	147.0709	190.143	149.8537	47.92335	45.46513
915.3038	-15.71282	37.93676	138.1181	185.981	137.7076	48.98674	52.79743
915.6218	-6.768697	35.99602	139.9443	187.4256	135.0146	52.35041	45.60342
915.9398	17.93286	30.21876	150.9307	202.9979	148.2247	60.51597	44.13658
916.2579	7.7976	27.15463	156.0054	212.4588	145.5566	56.18201	44.70897
916.5759	-2.425809	20.66769	156.639	213.5944	145.7185	48.82975	49.46533
916.8939	-10.27965	14.46085	159.316	194.3292	150.8338	41.15546	45.87722
917.2118	5.978714	15.86856	141.2408	178.383	155.2526	50.02232	50.3124
917.5298	8.70189	19.64388	129.5203	172.2709	147.232	59.27643	49.1237
917.8477	1.234771	25.62107	117.0467	181.2547	146.1406	64.6155	48.46412
918.1656	-12.48797	25.73143	126.9209	183.957	154.5765	54.72582	46.32492
918.4835	-15.386	34.75737	123.8638	185.8925	158.0896	47.23608	42.21878
918.8015	-8.431274	24.65565	121.3954	192.3661	152.252	43.46413	29.59187
919.1193	0.4463267	25.92288	117.994	200.3017	140.5795	50.16537	28.39708
919.4372	5.848387	20.53781	115.4739	216.1077	139.9116	63.44475	36.95575
919.755	5.197536	30.01798	114.1896	214.9428	146.1915	77.36528	42.27687
920.0729	-5.850081	29.27101	110.9127	199.168	151.2225	76.07496	54.17466
920.3907	-0.02724889	27.43884	103.1005	183.788	153.1771	66.49012	62.95583
920.7085	4.195007	14.78691	105.216	189.0354	155.2074	72.37641	50.99046
921.0262	7.696984	18.5309	107.7197	187.7194	156.8351	90.53964	50.46265
921.3441	2.684564	23.08541	106.6776	174.2445	154.9443	86.49913	53.94962
921.6618	12.8345	27.19023	101.1656	170.0299	155.4226	67.55087	56.92436
921.9795	10.43271	23.56104	98.9267	178.0448	152.4459	66.35161	38.19613
922.2972	1.592076	29.57003	98.57002	178.2835	163.3338	78.16259	42.76881
922.6149	-6.421614	30.12513	85.52818	169.1559	160.5712	85.67382	43.36169
922.9326	-0.7664102	22.09485	90.8973	172.2269	155.5202	91.82729	61.67881
923.2503	-10.82475	21.21355	90.44083	169.2729	154.028	81.4272	50.63151
923.568	-7.893346	16.9688	97.90723	162.0036	161.5577	69.07024	44.99986
923.8856	-8.272599	28.25781	88.08844	141.1413	156.5251	63.52788	34.54578
924.2032	-0.8262928	32.00961	86.76835	143.9119	149.8391	74.79708	48.06368
924.5209	-8.055009	31.34703	87.46365	145.4655	153.4942	90.04395	55.03484
924.8384	1.732522	17.94811	94.99935	166.1979	156.1624	104.3614	57.75735
925.156	-10.48698	31.53988	77.60137	144.8639	161.1286	74.72366	49.4817
925.4736	-3.969528	37.69936	67.89926	146.4628	161.7371	51.82612	42.59861
925.7911	-2.584721	33.95901	68.75457	140.9097	165.8343	68.77323	45.51972
926.1086	4.699579	24.94042	74.22199	146.0923	168.599	90.27924	52.46332
926.4262	-9.125913	21.55199	64.87926	136.4924	170.5885	81.93109	54.41588
926.7437	-11.91389	20.41777	59.68332	151.3051	170.2238	74.03326	52.25914
927.0612	-11.95647	25.26536	63.04123	157.416	162.916	78.16273	47.50085
927.3787	-1.080655	40.47717	62.93713	164.7904	172.4696	83.49741	54.29516
927.6961	4.478062	39.5638	66.00835	156.5832	170.4964	74.54714	53.07152
928.0135	9.507467	29.62796	62.11809	141.0982	167.7023	64.32947	54.00987
928.3309	-0.1262872	11.99086	67.69985	133.6151	153.5384	72.25744	50.03663
928.6484	-2.084019	11.5414	77.02476	153.5072	149.6997	91.44534	57.99999
928.9658	-3.878726	13.3274	72.65969	150.7428	149.6303	95.6346	56.53506
929.2831	1.009082	14.25245	75.32657	139.783	152.5166	108.2957	69.48112
929.6005	-7.850141	11.36934	68.9025	128.5619	156.3583	107.3007	70.21463
929.9178	-5.216867	15.38834	61.72818	131.5341	154.1283	105.427	74.57756
930.2352	-4.812452	30.2718	47.59754	123.2311	153.0811	89.69366	75.94239
930.5525	0.4746892	21.95377	62.05704	137.5341	148.6334	94.36668	81.92787
930.8698	-6.082102	19.53801	70.23062	140.672	168.0603	92.88967	70.91937
931.1871	0.4162812	17.20402	61.33421	133.7333	173.3287	100.6944	63.46179
931.5043	-2.140664	27.5038	53.00695	121.6887	165.3578	99.68353	75.76248
931.8215	-2.581065	21.77753	44.56306	118.7267	150.0714	98.86549	83.67375
932.1388	1.338292	18.68417	50.67434	117.2367	155.4091	114.0506	76.52694
932.456	7.97232	17.72136	57.47125	128.4724	157.7613	119.9791	75.44888
932.7732	3.343294	12.29922	52.94054	138.7933	165.7429	109.9253	76.09956
933.0904	-0.6542622	10.27431	38.4748	142.6024	166.9001	97.96407	72.6042
933.4076	1.983077	-0.1747202	32.49218	136.5894	156.9475	92.39327	53.45222
933.7247	1.726192	4.502727	43.58095	132.2524	145.6996	94.47554	55.65773
934.0419	4.992918	11.37982	42.84266	124.909	147.1786	111.1586	70.27202
934.359	17.04779	15.48026	47.8287	121.4271	155.9183	127.5045	80.9446
934.6761	20.3996	13.30664	52.7389	114.4424	167.1176	119.2015	78.21915
934.9932	14.52339	11.20863	59.56689	121.46	157.4395	102.0862	81.5979
935.3102	16.52511	13.80434	53.17981	131.2972	138.8834	94.0251	91.47742
935.6273	12.62364	13.0329	48.19168	132.3692	130.9252	104.5909	86.62609
935.9443	12.04717	13.14705	52.36623	124.2428	135.6224	114.0207	89.09524
936.2614	6.486942	6.848439	48.96799	128.6422	135.6976	126.0007	87.56081
936.5784	5.329864	2.013783	47.07445	129.0916	138.7845	126.2277	86.43896
936.8954	3.665716	11.67672	37.77668	115.3761	152.1284	116.8205	81.51662
937.2123	0.8910385	24.20852	42.67842	113.9045	154.0866	94.55267	90.07391
937.5294	-11.84098	32.32421	28.04904	117.8815	146.944	85.46643	85.37328
937.8463	-9.474803	15.51595	23.94339	124.4472	145.8072	89.69096	83.07858
938.1632	0.122801	3.248162	35.64961	114.29	159.3672	97.52702	75.42969
938.4801	-4.357968	0.2293686	44.33486	107.9135	167.667	95.27395	74.76622
938.7971	-5.579447	16.68077	40.51461	104.1413	167.1942	94.17165	77.89749
939.1139	6.59496	20.86176	27.23571	110.637	160.5083	99.22479	81.43961
939.4308	6.752173	18.30172	37.25025	116.3848	157.6803	114.8316	82.46388
939.7476	-3.991837	7.591508	32.62825	117.4464	161.4453	117.7997	80.21444
940.0645	6.925723	13.47935	45.89472	126.4717	169.8394	118.2379	82.22509
940.3813	9.389371	21.39805	44.0467	126.8018	161.5299	110.3069	72.64809
940.6981	6.602469	22.58386	42.77584	120.2341	141.1684	106.5461	71.38839
941.0149	-0.6627045	21.17616	27.27887	107.308	129.7747	100.3743	76.0843
941.3317	1.044181	17.51002	31.69115	111.7657	135.9506	111.2923	86.22159
941.6484	9.641346	11.95404	30.81355	114.6943	143.9694	107.3454	84.52083
941.9651	10.3335	17.07428	36.13467	108.2085	156.5653	100.1272	75.93475
942.2819	4.106969	23.83679	31.38484	108.712	154.3432	93.74716	75.18791
942.5986	-3.528498	25.71249	24.17787	104.359	138.7846	104.4359	76.97746
942.9153	15.36652	3.411021	19.19625	98.24764	128.3436	104.1392	75.14474
943.2319	11.65927	7.735658	23.15501	81.60722	139.0187	106.8829	72.45437
943.5486	-2.399564	-5.89244	24.40674	96.87785	150.64	113.9542	77.27848
943.8653	-9.728916	-3.296944	23.00087	107.1125	153.6295	117.8445	75.153
944.1819	-6.409739	-3.546477	26.31405	107.8561	137.9794	101.1188	66.94466
944.4985	10.43907	12.90552	35.73176	108.0177	129.6505	106.3208	63.81313
944.8151	-0.05021572	17.07058	25.64815	105.5526	129.6692	119.6241	68.97451
945.1317	-0.7098743	17.46315	26.35498	102.9633	144.7712	122.1013	69.35236
945.4482	-9.979918	11.88944	18.92064	97.77933	137.4569	104.733	73.64023
945.7648	9.850799	13.2657	24.96756	112.1644	129.5092	115.7385	83.54917
946.0814	-6.161167	15.63446	15.73504	88.87956	128.2737	113.7377	89.47333
946.3978	-10.52157	9.048553	21.73832	90.29206	134.661	119.747	89.02822
946.7144	-14.37261	2.995807	21.37889	94.97987	142.0268	108.5636	86.94657
947.0308	3.115932	2.636446	25.13916	112.6509	126.7939	108.6319	96.96883
947.3473	8.553004	5.35082	23.07042	107.4948	109.9864	99.47869	96.48068
947.6638	14.86341	1.418754	27.89975	103.9705	103.7283	111.7548	87.95405
947.9802	5.068561	5.100029	31.89173	88.97192	115.388	111.1002	75.4828
948.2966	1.996543	0.01394787	28.14684	87.94503	129.8953	106.1805	75.4188
948.613	-9.604846	4.554997	13.86204	86.5332	130.5382	114.8815	72.62577
948.9294	-3.688255	8.613395	12.37832	86.55756	125.5897	116.7806	73.55923
949.2458	-4.067915	14.71602	21.33821	81.03828	122.3947	105.3903	75.56422
949.5621	8.618259	17.10566	37.59157	100.9923	139.6065	94.95166	78.32542
949.8785	10.56758	16.58896	32.5043	94.93231	139.0804	95.84163	69.27017
950.1948	15.16903	26.43675	27.038	86.5659	131.4837	93.59718	72.21699
950.5111	7.172909	26.21615	15.73859	65.27193	123.5493	95.89678	75.86054
950.8275	6.995289	23.448	20.49339	77.01732	114.4817	106.5121	80.40398
951.1437	-0.1469651	6.014498	14.26532	78.58561	111.1874	112.7338	70.81824
951.46	3.816385	11.33639	12.485	91.71659	123.3754	110.9923	63.68759
951.7762	17.3803	12.76999	7.291975	96.29083	122.3141	107.009	79.4874
952.0924	23.93924	17.71495	17.65222	110.0603	113.0407	114.603	91.26115
952.4086	12.1521	10.61822	23.14983	97.01207	106.7902	116.5031	85.35567
952.7249	4.513477	4.987797	24.6558	86.51229	122.7815	117.4146	76.32503
953.041	0.7841969	8.380919	11.54665	64.54604	122.9086	97.96116	81.22311
953.3572	0.1871149	18.9828	0.4794048	62.0977	126.8159	94.76761	77.36332
953.6733	-1.488359	19.5674	2.259621	71.54146	106.2307	90.08503	67.9815
953.9895	8.057033	4.195367	13.00848	84.17213	99.36343	99.30926	72.34348
954.3056	0.7428282	-0.7801791	13.37237	82.49723	99.31107	93.5033	79.31022
954.6217	2.217921	1.54082	4.183725	72.7555	117.7595	91.07077	87.01983
954.9378	-15.75648	7.483657	-5.195524	68.49349	119.5612	79.64986	76.64103
955.2538	-3.245933	10.7276	0.7929398	63.40918	120.3854	83.2701	67.28842
955.5699	0.07603821	16.84556	8.910122	66.649	117.4575	95.20502	68.95374
955.8859	12.24301	18.06973	18.95379	62.31556	117.8106	113.7456	79.55817
956.202	-6.555088	26.77973	21.79115	51.69893	106.05	105.0526	71.63001
956.5179	-4.760281	28.95023	29.56769	52.77457	97.62625	97.60155	72.83794
956.8339	-5.64694	18.26846	31.81194	65.15851	89.80869	94.691	83.81733
957.1499	-4.801549	8.729363	22.98287	74.65913	98.47977	93.61196	84.32608
957.4659	-5.367869	14.61457	13.94112	71.13287	96.65813	76.16879	74.68204
957.7818	6.967213	14.82298	4.282271	65.53059	103.8743	78.06103	73.81602
958.0977	12.05598	7.23021	4.016333	62.01877	101.4093	97.45146	74.95239
958.4136	0.8227008	17.96265	-0.4997295	47.7181	107.647	108.9395	67.24577
958.7296	-2.413973	15.55774	3.0346	53.71202	92.50452	104.5045	71.20374
959.0454	6.325409	7.149351	7.773881	72.18609	89.87009	93.645	78.40637
959.3613	12.28322	-9.228792	7.125657	83.30521	94.00073	94.0985	81.36975
959.6771	7.335973	10.86092	4.179049	76.76219	102.5062	95.21696	75.53872
959.9929	-6.354561	12.55319	5.480594	75.46091	100.267	97.82072	75.16584
960.3088	-9.406078	15.91536	10.58637	78.04763	88.42006	89.33306	73.10796
960.6246	-4.768392	6.447478	7.851378	71.35215	89.1129	77.01692	69.88137
960.9403	1.922356	16.28899	10.39218	69.06251	88.03287	81.28153	65.13786
961.2561	5.154633	1.694395	9.190561	59.95911	82.6495	90.73112	70.42967
961.5718	5.277459	-3.109236	13.14449	58.8115	85.13842	95.36099	82.02886
961.8876	6.971718	-7.33515	6.245093	58.37713	89.93015	80.48985	93.29326
962.2032	7.899895	-1.539498	14.63485	65.04794	95.56704	84.16132	87.89788
962.519	5.609682	-4.010181	8.221561	54.7037	81.02278	93.08827	76.55904
962.8347	-2.382183	6.579437	14.06999	57.15683	78.96808	97.07837	71.686
963.1503	-4.235196	4.053408	8.067569	46.24044	78.71836	89.6131	74.98181
963.4659	1.454892	6.056463	15.67385	58.40683	86.37883	92.74409	61.82478
963.7816	-8.239339	7.189667	13.86613	47.99517	87.69075	87.36593	53.74733
964.0972	-19.16941	17.63508	2.862354	47.91727	88.15446	74.75799	63.70417
964.4128	-25.82178	4.7201	4.069357	50.42342	86.94916	71.59868	74.91291
964.7284	-10.00875	-2.150483	8.856984	69.38199	88.35978	67.99847	77.59813
965.0439	6.80173	-0.05627215	9.922604	58.06948	81.65448	71.10152	78.78757
965.3595	15.88516	11.51013	-8.00818	37.91726	77.35593	82.12244	77.46412
965.675	-1.77417	19.54977	-10.11643	33.86137	71.05961	87.15727	71.13911
965.9906	-6.595419	17.63871	-3.918891	38.61206	80.28628	80.05343	72.16724
966.3061	5.533401	16.05556	10.16469	48.6586	78.77676	71.8058	69.43037
966.6216	14.68621	7.410265	10.37512	58.63962	68.13999	80.3103	64.72891
966.937	8.108038	2.859812	0.5044528	52.88073	62.67862	78.58274	62.27883
967.2525	5.694715	-2.583649	-0.2850752	45.53981	75.83575	87.40144	71.53313
967.5679	6.562674	0.7202393	12.11708	29.87171	96.44003	84.46046	72.46478
967.8834	0.8648062	5.91079	14.86884	35.01864	89.02308	74.59365	78.88463
968.1987	1.985487	12.98512	13.75701	38.50126	73.53614	70.19848	73.72697
968.5142	8.255684	10.03636	9.745596	50.66223	62.74557	69.99532	66.22967
968.8295	8.541991	-0.5630229	6.452456	41.38968	59.63596	71.85085	56.06491
969.1449	4.495692	-5.422867	7.399107	47.38027	60.27085	72.4476	59.54236
969.4602	6.129701	11.15228	8.205488	47.48484	70.76834	69.90053	54.27765
969.7756	4.905369	23.57392	-3.414194	40.69025	81.33784	65.56166	48.72112
970.0909	2.290443	25.1093	-11.01153	27.98405	83.5598	62.49634	46.94357
970.4061	7.612838	20.53499	-3.438234	27.16895	77.1568	78.07497	58.5708
970.7214	12.35377	12.7705	2.785439	19.03761	64.84805	75.09806	58.69255
971.0367	6.746283	6.924349	3.376572	20.72703	56.4371	69.7388	62.83289
971.3519	2.332687	4.625488	0.4479073	32.46314	67.89916	53.25066	68.38107
971.6672	2.832078	4.326867	5.85212	48.16823	75.38816	64.62243	62.91146
971.9824	2.604364	4.737811	1.221884	37.78019	72.6836	64.95241	57.5489
972.2975	5.414049	10.6762	-5.089738	32.28148	63.24027	59.35029	57.09705
972.6127	-2.718132	9.476725	-4.551904	24.75551	55.05498	43.62572	64.70825
972.9279	-6.883288	6.289774	8.57655	40.86149	64.2791	45.52027	58.88623
973.243	-9.102461	-4.464244	9.652279	44.45202	69.13667	47.69223	53.12245
973.5582	4.888015	-3.10907	0.4807115	35.04196	62.87523	57.40356	45.8157
973.8733	-9.692492	2.900235	-5.229505	12.34442	52.56114	52.26745	40.15114
974.1884	-6.529229	15.92302	-3.019138	12.94023	58.93125	43.38974	46.55494
974.5035	-4.812707	7.016832	2.009902	25.50582	47.11453	39.77067	51.33625
974.8185	14.11954	5.415707	11.1283	35.2517	40.13104	58.93616	59.82503
975.1335	-2.04732	-6.723578	12.78101	37.80028	43.42109	63.1364	55.54732
975.4486	-10.18917	6.718331	-0.8790165	21.16562	49.62432	58.41748	57.36162
975.7636	-8.529601	8.655728	-6.155279	16.82639	47.279	55.65887	45.62894
976.0786	13.14209	3.538526	-3.370261	28.46479	54.85652	50.75053	46.81637
976.3936	10.40452	-5.860106	1.366575	25.09976	51.88332	34.9118	44.91882
976.7086	-6.617058	12.0033	-4.035626	5.795485	51.56546	30.63346	42.45214
977.0235	-16.7662	22.75072	-3.366177	9.927764	43.95217	35.87267	38.14296
977.3384	-5.856331	17.81927	-5.488612	26.51148	52.72426	43.00574	40.11087
977.6534	-2.687126	4.729602	-0.9443852	33.05787	46.75308	44.88545	46.89967
977.9683	3.286826	-0.6173984	10.69228	24.69214	46.44304	58.71914	54.86584
978.2831	2.583983	4.817228	16.76521	27.15889	40.56949	54.71394	51.94027
978.598	8.896066	19.48988	6.626252	35.46551	41.44683	45.12974	44.68521
978.9128	3.527095	11.26658	-1.750951	37.21659	37.7499	37.18825	40.61473
979.2277	8.167934	6.839312	-8.520484	28.62993	52.08875	48.02776	43.91979
979.5425	0.9832515	13.51497	-8.413044	18.50803	52.4881	43.29243	40.52204
979.8573	3.123916	15.89459	3.533745	17.17737	49.18248	35.7332	42.8501
980.1721	4.621217	5.401001	5.432905	9.175152	38.54342	38.33101	55.92823
980.4869	-0.3510967	11.95944	-4.790542	4.349854	47.75171	42.48978	52.63054
980.8016	-5.29271	15.04592	-16.56445	9.606586	43.00597	39.92324	54.71149
981.1163	8.611387	4.840054	-2.881477	16.36391	49.67319	24.33581	48.42641
981.4311	14.24922	-0.835618	9.041451	17.77786	49.16104	30.91136	55.87164
981.7458	12.28757	5.323582	14.05809	26.31837	37.32833	35.6954	49.82769
982.0605	-2.722296	17.5769	9.812399	17.95499	32.58992	35.93605	50.42227
982.3751	-4.367583	16.46893	-2.091209	20.10073	38.53133	19.60684	48.53346
982.6898	-3.948574	1.622034	-9.24008	13.39116	42.44741	21.24796	49.24546
983.0045	12.85929	-14.08139	-11.63594	40.09609	40.96871	36.05874	51.16981
983.319	11.17266	-7.023844	-7.294653	35.3135	33.21451	49.44733	39.79865
983.6337	4.413897	12.87075	-1.175258	25.60445	29.01416	41.17884	41.43896
983.9482	-9.933216	16.74281	-0.4901876	-2.845717	28.68312	33.8742	41.01813
984.2628	-11.46379	9.677895	4.492889	0.5541412	42.42892	28.15553	42.12589
984.5774	-10.11893	6.290244	-2.032262	10.02602	41.15765	44.80342	34.36011
984.8919	-2.136545	12.1628	-0.05458754	20.89167	31.82409	38.91443	36.59418
985.2064	-2.293579	13.38232	-2.678946	17.85562	27.1274	44.14683	41.1078
985.5209	1.507789	10.78868	-1.854716	16.63737	24.74136	29.82685	35.3349
985.8354	-4.242596	5.912907	0.04649735	3.189186	22.9997	32.46688	39.54547
986.1499	-9.39552	1.925421	6.303982	-1.45695	31.57488	20.27965	40.8742
986.4644	-13.92112	9.333673	1.171422	-4.775733	38.3433	14.75424	40.85296
986.7788	-2.651428	17.33929	-11.31027	6.843045	29.59406	21.75219	35.1754
987.0932	6.126109	8.083057	-3.933852	10.98936	17.90431	29.99542	34.20454
987.4077	12.96381	-1.664797	5.472654	20.81575	21.06282	36.4531	30.86958
987.722	-1.413411	4.963192	7.780414	24.47681	31.25394	21.09496	24.38482
988.0364	3.587208	10.70596	-2.955091	26.2522	42.64306	26.36342	26.75138
988.3508	7.378663	6.695792	-6.727502	19.32167	32.77417	27.86302	29.15808
988.6651	9.200653	9.267441	-5.015597	14.81121	20.33355	32.13871	43.88164
988.9794	2.561231	5.245376	-0.2025417	10.73554	17.4278	21.26288	49.17228
989.2937	8.827276	9.354428	-2.580971	7.083511	34.41999	20.21464	50.0438
989.608	4.093704	-1.001519	-6.539368	1.782972	34.42559	21.8854	33.6657
989.9223	0.6990783	8.921134	-6.96897	-4.151895	27.00802	14.81911	36.1258
990.2366	-2.83989	-1.663251	-7.501466	-4.601815	19.86688	8.602369	37.80088
990.5508	3.397934	3.379314	-5.870414	7.96032	23.82081	19.81161	39.57939
990.865	-4.520032	-3.332092	-5.209491	15.31593	26.23022	36.82105	31.77426
991.1793	2.831547	7.972101	-11.57664	14.41003	23.39522	38.98879	35.3564
991.4934	-8.456981	9.70333	-11.36843	-3.85968	17.38874	28.03728	34.70501
991.8076	-4.512505	16.28486	-3.113457	-5.677255	22.35285	28.54889	33.04974
992.1218	2.001286	14.63613	7.049888	-4.30241	22.66635	32.01663	34.61188
992.4359	18.01908	5.753895	6.395936	11.59926	27.72019	22.8547	44.44738
992.75	14.31985	9.724829	-1.959161	-9.962834	19.2751	3.947954	41.57037
993.0641	12.11071	22.97575	-11.1255	-17.32324	21.05569	6.00762	38.53758
993.3782	2.158035	23.60363	-20.44122	-14.93169	21.73715	19.46916	33.89568
993.6923	0.4574456	15.76919	-12.8079	4.373048	38.62822	21.53981	47.0377
994.0063	-0.6644943	4.953459	5.278807	1.47103	32.66637	16.80379	45.70775
994.3204	6.002268	5.995782	16.69511	13.99768	23.61211	19.73284	47.68635
994.6345	2.27309	-6.100577	17.21074	16.89826	19.09484	25.41437	38.9511
994.9484	13.84099	3.502625	16.35561	13.79435	21.90498	15.99418	37.96169
995.2625	11.00306	9.212081	8.051911	-15.39961	27.99397	-4.300516	31.46719
995.5764	-0.4051218	17.55921	-7.85937	-4.745495	32.58043	-3.707573	35.87815
995.8904	-7.8313	6.97318	-19.06523	6.163013	26.92251	15.10729	29.81858
996.2043	0.2916166	4.772961	-5.583019	26.41559	14.42764	37.86469	34.6469
996.5182	2.163702	11.4466	6.392115	5.804642	16.47473	34.29556	32.99057
996.8322	2.680446	16.61612	16.26315	0.4365977	26.72122	22.57154	37.87724
997.1461	-0.9366341	17.70341	0.6007768	-12.63213	26.07854	8.79895	33.81119
997.46	-0.3684298	15.11075	-6.16544	-3.751169	20.31669	1.289571	49.76235
997.7738	-5.825678	12.52051	-10.32094	-10.03263	12.43287	-5.580265	46.7131
998.0876	2.475287	7.792187	0.4573592	-1.932462	11.37369	2.19528	28.35262
998.4015	5.377519	14.1416	5.627928	5.155801	14.82943	11.10745	15.389
998.7153	15.83737	18.79057	2.216588	7.959086	20.69896	7.117597	17.08405
999.0291	12.82269	20.42395	-6.580713	3.880248	25.4656	-2.42615	23.12084
999.3428	4.822613	19.29009	-7.732719	9.087945	36.52145	6.926556	25.95398
999.6566	-0.9358341	16.77906	-2.131248	7.551157	27.00946	10.84134	29.43132
999.9703	9.248453	17.01742	-3.386519	1.207464	23.55486	11.12262	24.49372
1000.284	14.6984	12.95112	-12.36336	-1.165385	9.292922	-4.395598	26.10035
1000.598	17.13456	4.538649	-8.8128	16.21213	14.15068	10.57699	32.91623
1000.911	8.447221	0.7983459	-5.469163	7.474409	7.365028	10.3439	26.01379
1001.225	7.560389	5.918941	1.930941	10.47645	5.687014	24.10914	17.46119
1001.539	1.984747	11.90316	-2.869632	-0.3413048	-1.157243	11.71313	22.03043
1001.852	7.53213	15.65522	3.646905	-4.287614	3.9187	13.24633	40.47318
1002.166	-7.987257	16.43831	-0.2975656	-17.23857	12.81823	1.976359	22.4214
1002.48	-0.4064493	10.09785	-3.352425	-15.47403	16.87429	11.65571	10.12783
1002.793	-5.852525	5.853618	-2.646062	-2.942142	15.22089	18.78177	16.24266
1003.107	2.320399	13.83906	-4.050617	0.2921562	19.09571	6.80863	33.76407
1003.42	-5.352649	4.393941	-1.693366	-3.614237	15.19005	-3.752106	28.55323
1003.734	8.561764	0.4983603	-9.977864	-5.658846	9.568954	-4.370038	23.77461
1004.048	-0.9211269	3.431267	-6.557158	-8.366323	3.384003	15.67222	18.30341
1004.361	-2.772834	15.455	-4.735496	-8.296008	11.51846	17.69941	22.29417
1004.675	2.979384	16.6508	5.370713	0.4245972	24.52699	22.94426	25.72481
1004.988	-0.4474629	20.39347	6.913741	6.476326	19.18937	15.3965	31.22732
1005.301	-9.272709	5.647667	10.73792	-6.992406	10.50548	18.31951	26.16252
1005.615	-8.3532	-4.772401	1.038224	-19.87917	5.175046	0.6708263	29.47303
1005.928	5.656404	5.926452	-5.005527	-22.97088	13.87457	-2.865551	27.34228
1006.242	1.675838	24.41098	-2.126503	-21.21817	11.52014	-2.774881	26.0209
1006.555	-4.926868	22.0113	9.209196	-13.51382	7.755862	10.19291	23.65964
